 JENDL/AD-2017  Ca- 44   pointwise at 293.6K                         0         0
 2.004400+4 4.357790+1          2          0          6          12037 1451    1
 0.000000+0 0.000000+0          0          0          0          62037 1451    2
 1.000000+0 2.000000+7          0          0         10          02037 1451    3
 2.936000+2 0.000000+0          1          0         74         162037 1451    4
 20-Ca- 44 JAEA       EVAL-JUN06 K.Shibata                        2037 1451    5
                      DIST-MAR18                       20131220   2037 1451    6
----JENDL/AD-2017     MATERIAL 2037                               2037 1451    7
-----INCIDENT NEUTRON DATA                                        2037 1451    8
------ENDF-6 FORMAT                                               2037 1451    9
                                                                  2037 1451   10
History                                                           2037 1451   11
2010-05 Evaluated for JENDL-4.0/1/.                               2037 1451   12
2013-12 File-making was performed for JENDL Activation File.      2037 1451   13
                                                                  2037 1451   14
MF= 1 General iformation                                          2037 1451   15
  MT=451 Descriptive data and directory                           2037 1451   16
                                                                  2037 1451   17
MF= 2 Resonance parameters                                        2037 1451   18
  MT=151  Resolved resonance parameters                           2037 1451   19
   The resolved resonance region remains unchanged from JENDL-3.3.2037 1451   20
   Resolved parameters for MLBW formula were given in the energy  2037 1451   21
   region from 1.0e-5 eV to 500 keV.  Parameters were taken from  2037 1451   22
   the recommended data of BNL/2/ and the data for a negative     2037 1451   23
   resonance were added so as to reproduce the recommended thermal2037 1451   24
   cross sections for capture and scatterng/2/.  The scattering   2037 1451   25
   radius was assumed to be 3.6 fermi.                            2037 1451   26
   The parameters should be used only for self-shielding          2037 1451   27
   calculations.                                                  2037 1451   28
                                                                  2037 1451   29
MF= 3 Neutron cross sections                                      2037 1451   30
  MT= 16 (n,2n) cross section                                     2037 1451   31
    Taken from JENDL-4.0.                                         2037 1451   32
                                                                  2037 1451   33
  MT= 17 (n,3n) cross section                                     2037 1451   34
    Taken from JENDL-4.0.                                         2037 1451   35
                                                                  2037 1451   36
  MT= 22 (n,na) cross section                                     2037 1451   37
    Taken from JENDL-4.0.                                         2037 1451   38
                                                                  2037 1451   39
  MT= 28 (n,np) cross section                                     2037 1451   40
    Taken from JENDL-4.0.                                         2037 1451   41
                                                                  2037 1451   42
  MT=102 (n,g) cross section                                      2037 1451   43
    Taken from JENDL-4.0.                                         2037 1451   44
                                                                  2037 1451   45
  MT=103 (n,p) cross section                                      2037 1451   46
    Taken from JENDL-4.0.                                         2037 1451   47
                                                                  2037 1451   48
  MT=107 (n,a) cross section                                      2037 1451   49
    Taken from JENDL-4.0.                                         2037 1451   50
                                                                  2037 1451   51
MF= 8 Information on decay data                                   2037 1451   52
  MT= 16 (n,2n) reaction                                          2037 1451   53
                                                                  2037 1451   54
  MT= 17 (n,3n) reaction                                          2037 1451   55
                                                                  2037 1451   56
  MT= 22 (n,na) reaction                                          2037 1451   57
                                                                  2037 1451   58
  MT= 28 (n,np) reaction                                          2037 1451   59
                                                                  2037 1451   60
  MT=102 (n,g) reaction                                           2037 1451   61
                                                                  2037 1451   62
  MT=103 (n,p) reaction                                           2037 1451   63
                                                                  2037 1451   64
  MT=107 (n,a) reaction                                           2037 1451   65
                                                                  2037 1451   66
References                                                        2037 1451   67
 1) K.Shibata et al., J. Nucl. Sci. Technol. 48, 1 (2011).        2037 1451   68
 2) S.F.Mughaghab et al., "Neutron Cross Sections", Vol. 1, Part  2037 1451   69
     A (1981).                                                    2037 1451   70
                                                                  2037 1451   71
 ***************** Program LINEAR (VERSION 2017-1) ***************2037 1451   72
 For All Data Greater than 1.0000E-10 barns in Absolute Value     2037 1451   73
 Data Linearized to Within an Accuracy of .100000000 per-cent     2037 1451   74
 ***************** Program SIGMA1 (VERSION 2017-1) ***************2037 1451   75
 Data Doppler Broadened to 293.600000 Kelvin                      2037 1451   76
 for All Data Greater than 1.0000E-10 barns in Absolute Value     2037 1451   77
 Data Linearized to Within an Accuracy of .100000000 per-cent     2037 1451   78
                                1        451         94          12037 1451   79
                                2        151         45          12037 1451   80
                                3         16          7          12037 1451   81
                                3         17          4          12037 1451   82
                                3         22          7          12037 1451   83
                                3         28          6          12037 1451   84
                                3        102       2160          12037 1451   85
                                3        103         12          12037 1451   86
                                3        107         21          12037 1451   87
                                8         16          2          12037 1451   88
                                8         17          2          12037 1451   89
                                8         22          2          12037 1451   90
                                8         28          2          12037 1451   91
                                8        102          2          12037 1451   92
                                8        103          2          12037 1451   93
                                8        107          2          12037 1451   94
                                                                  2037 1  099999
                                                                  2037 0  0    0
 2.004400+4 4.357790+1          0          0          1          02037 2151    1
 2.004400+4 1.000000+0          0          0          1          02037 2151    2
 1.000000-5 5.000000+5          1          2          0          02037 2151    3
 0.000000+0 3.600000-1          0          0          2          02037 2151    4
 4.320350+1 0.000000+0          0          0        144         242037 2151    5
-1.000000+4 5.000000-1 1.301510+3 1.300000+3 1.510000+0 0.000000+02037 2151    6
 1.511000+4 5.000000-1 5.530000+0 5.000000+0 5.300000-1 0.000000+02037 2151    7
 2.310000+4 5.000000-1 1.053000+1 1.000000+1 5.300000-1 0.000000+02037 2151    8
 2.723000+4 5.000000-1 5.660000+0 5.000000+0 6.600000-1 0.000000+02037 2151    9
 4.207000+4 5.000000-1 3.339270-1 5.600000-3 3.283270-1 0.000000+02037 2151   10
 5.160000+4 5.000000-1 2.131800+3 2.130000+3 1.800000+0 0.000000+02037 2151   11
 7.571990+4 5.000000-1 3.107000+1 3.000000+1 1.070000+0 0.000000+02037 2151   12
 8.716990+4 5.000000-1 1.066000+1 1.000000+1 6.600000-1 0.000000+02037 2151   13
 1.015000+5 5.000000-1 5.501000+3 5.500000+3 1.000000+0 0.000000+02037 2151   14
 1.310000+5 5.000000-1 5.550000+0 5.000000+0 5.500000-1 0.000000+02037 2151   15
 1.456000+5 5.000000-1 4.004700+3 4.000000+3 4.700000+0 0.000000+02037 2151   16
 1.514000+5 5.000000-1 2.630000+1 2.500000+1 1.300000+0 0.000000+02037 2151   17
 1.612000+5 5.000000-1 3.007700+2 3.000000+2 7.700000-1 0.000000+02037 2151   18
 1.750000+5 5.000000-1 1.500830+3 1.500000+3 8.300000-1 0.000000+02037 2151   19
 3.215000+5 5.000000-1 9.000830+3 9.000000+3 8.300000-1 0.000000+02037 2151   20
 3.700000+5 5.000000-1 1.100083+4 1.100000+4 8.300000-1 0.000000+02037 2151   21
 3.850000+5 5.000000-1 3.008300+2 3.000000+2 8.300000-1 0.000000+02037 2151   22
 4.435000+5 5.000000-1 1.500830+3 1.500000+3 8.300000-1 0.000000+02037 2151   23
 4.830000+5 5.000000-1 1.750083+4 1.750000+4 8.300000-1 0.000000+02037 2151   24
 5.060000+5 5.000000-1 3.500830+3 3.500000+3 8.300000-1 0.000000+02037 2151   25
 5.300000+5 5.000000-1 2.000830+3 2.000000+3 8.300000-1 0.000000+02037 2151   26
 5.385000+5 5.000000-1 5.008300+2 5.000000+2 8.300000-1 0.000000+02037 2151   27
 5.460000+5 5.000000-1 8.008300+2 8.000000+2 8.300000-1 0.000000+02037 2151   28
 5.605000+5 5.000000-1 2.500830+3 2.500000+3 8.300000-1 0.000000+02037 2151   29
 4.320350+1 0.000000+0          1          0         90         152037 2151   30
 1.218000+4 5.000000-1 7.200000-1 5.000000-1 2.200000-1 0.000000+02037 2151   31
 1.029800+5 1.500000+0 5.430000+0 5.000000+0 4.300000-1 0.000000+02037 2151   32
 1.319000+5 5.000000-1 5.430000+0 5.000000+0 4.300000-1 0.000000+02037 2151   33
 1.360000+5 1.500000+0 5.250000+0 5.000000+0 2.500000-1 0.000000+02037 2151   34
 1.368000+5 1.500000+0 5.250000+0 5.000000+0 2.500000-1 0.000000+02037 2151   35
 1.482000+5 1.500000+0 5.420000+0 5.000000+0 4.200000-1 0.000000+02037 2151   36
 1.553000+5 5.000000-1 5.230000+0 5.000000+0 2.300000-1 0.000000+02037 2151   37
 1.586000+5 1.500000+0 5.250000+0 5.000000+0 2.500000-1 0.000000+02037 2151   38
 1.646000+5 1.500000+0 1.031000+1 1.000000+1 3.100000-1 0.000000+02037 2151   39
 2.210000+5 5.000000-1 6.052300+2 6.050000+2 2.300000-1 0.000000+02037 2151   40
 2.470000+5 5.000000-1 3.000230+3 3.000000+3 2.300000-1 0.000000+02037 2151   41
 4.383000+5 5.000000-1 2.960230+3 2.960000+3 2.300000-1 0.000000+02037 2151   42
 4.755000+5 5.000000-1 1.172830+3 1.172000+3 8.300000-1 0.000000+02037 2151   43
 4.900000+5 5.000000-1 8.352300+2 8.350000+2 2.300000-1 0.000000+02037 2151   44
 5.760000+5 5.000000-1 5.812300+2 5.810000+2 2.300000-1 0.000000+02037 2151   45
                                                                  2037 2  099999
                                                                  2037 0  0    0
 2.004400+4 4.357790+1          0          0          0          02037 3 16    1
-1.113000+7-1.113000+7          0          0          1         112037 3 16    2
         11          2          0          0          0          02037 3 16    3
 1.138540+7 0.000000+0 1.200000+7 8.508500-2 1.300000+7 3.104900-12037 3 16    4
 1.400000+7 5.288000-1 1.450000+7 6.068500-1 1.500000+7 6.640500-12037 3 16    5
 1.600000+7 7.265000-1 1.700000+7 7.412500-1 1.800000+7 7.273000-12037 3 16    6
 1.900000+7 6.967500-1 2.000000+7 6.577855-1                      2037 3 16    7
                                                                  2037 3  099999
 2.004400+4 4.357790+1          0          0          0          02037 3 17    1
-1.906300+7-1.906300+7          0          0          1          22037 3 17    2
          2          2          0          0          0          02037 3 17    3
 1.950045+7 0.000000+0 2.000000+7 1.144800-4                      2037 3 17    4
                                                                  2037 3  099999
 2.004400+4 4.357790+1          0          0          0          02037 3 22    1
-8.853000+6-8.853000+6          0          0          1         112037 3 22    2
         11          2          0          0          0          02037 3 22    3
 9.056154+6 0.000000+0 1.200000+7 8.868120-6 1.300000+7 7.502800-52037 3 22    4
 1.400000+7 1.113160-3 1.450000+7 3.167040-3 1.500000+7 7.231080-32037 3 22    5
 1.600000+7 2.363660-2 1.700000+7 5.048520-2 1.800000+7 8.540680-22037 3 22    6
 1.900000+7 1.246054-1 2.000000+7 1.644542-1                      2037 3 22    7
                                                                  2037 3  099999
 2.004400+4 4.357790+1          0          0          0          02037 3 28    1
-1.216400+7-1.216400+7          0          0          1          92037 3 28    2
          9          2          0          0          0          02037 3 28    3
 1.244313+7 0.000000+0 1.400000+7 7.214900-5 1.450000+7 4.914100-42037 3 28    4
 1.500000+7 1.783880-3 1.600000+7 8.613851-3 1.700000+7 2.065370-22037 3 28    5
 1.800000+7 3.499440-2 1.900000+7 4.842400-2 2.000000+7 5.919200-22037 3 28    6
                                                                  2037 3  099999
 2.004400+4 4.357790+1          0          0          0          02037 3102    1
 7.415000+6 7.415000+6          0          0          1       64702037 3102    2
       6470          2          0          0          0          02037 3102    3
 1.000000-5 4.468347+1 1.103037-5 4.254533+1 1.216691-5 4.050950+12037 3102    4
 1.342055-5 3.857108+1 1.480336-5 3.672542+1 1.632865-5 3.496808+12037 3102    5
 1.801111-5 3.329483+1 1.986691-5 3.170164+1 2.191394-5 3.018469+12037 3102    6
 2.417189-5 2.874032+1 2.666248-5 2.736507+1 2.940971-5 2.605563+12037 3102    7
 3.243999-5 2.480885+1 3.578251-5 2.362172+1 3.946943-5 2.249140+12037 3102    8
 4.353624-5 2.141517+1 4.802208-5 2.039043+1 5.297013-5 1.941473+12037 3102    9
 5.842801-5 1.848572+1 6.444825-5 1.760116+1 7.108881-5 1.675893+12037 3102   10
 7.841358-5 1.595700+1 8.649308-5 1.519345+1 9.540506-5 1.446643+12037 3102   11
 1.052353-4 1.377419+1 1.160784-4 1.311509+1 1.280388-4 1.248752+12037 3102   12
 1.412315-4 1.188998+1 1.557836-4 1.132103+1 1.718351-4 1.077931+12037 3102   13
 1.895404-4 1.026351+1 2.090701-4 9.772394+0 2.306120-4 9.304776+02037 3102   14
 2.543736-4 8.859535+0 2.805835-4 8.435598+0 3.094939-4 8.031947+02037 3102   15
 3.413832-4 7.647611+0 3.765583-4 7.281666+0 4.153577-4 6.933232+02037 3102   16
 4.581549-4 6.601471+0 5.053618-4 6.285585+0 5.574328-4 5.984814+02037 3102   17
 6.148689-4 5.698435+0 6.782232-4 5.425760+0 7.481052-4 5.166132+02037 3102   18
 8.251877-4 4.918928+0 9.102125-4 4.683553+0 1.003998-3 4.459441+02037 3102   19
 1.107447-3 4.246053+0 1.221555-3 4.042875+0 1.347420-3 3.849420+02037 3102   20
 1.486254-3 3.665222+0 1.639393-3 3.489838+0 1.808311-3 3.322846+02037 3102   21
 1.994634-3 3.163844+0 2.200155-3 3.012452+0 2.426853-3 2.868303+02037 3102   22
 2.676908-3 2.731052+0 2.952729-3 2.600369+0 3.256969-3 2.475939+02037 3102   23
 3.592557-3 2.357462+0 3.962723-3 2.244656+0 4.371030-3 2.137247+02037 3102   24
 4.821407-3 2.034977+0 5.318191-3 1.937602+0 5.866161-3 1.844886+02037 3102   25
 6.470592-3 1.756606+0 7.137302-3 1.672551+0 7.872708-3 1.592517+02037 3102   26
 8.683888-3 1.516314+0 9.578649-3 1.443757+0 1.056560-2 1.374673+02037 3102   27
 1.165425-2 1.308895+0 1.285507-2 1.246267+0 1.417962-2 1.186640+02037 3102   28
 1.564064-2 1.129874+0 1.725221-2 1.075837+0 1.902982-2 1.024403+02037 3102   29
 2.099059-2 9.754485-1 2.315340-2 9.288470-1 2.524188-2 8.896541-12037 3102   30
 2.530000-2 8.886332-1 2.790683-2 8.461602-1 3.078227-2 8.056856-12037 3102   31
 3.395398-2 7.671173-1 3.745250-2 7.303831-1 4.131149-2 6.954106-12037 3102   32
 4.556810-2 6.621352-1 5.026329-2 6.304784-1 5.544227-2 6.003429-12037 3102   33
 6.115487-2 5.716270-1 6.745608-2 5.442555-1 7.440655-2 5.181813-12037 3102   34
 8.207318-2 4.933615-1 9.052975-2 4.697559-1 9.985766-2 4.473185-12037 3102   35
 0.11014669 4.259559-1 0.12149586 4.055711-1 0.13401443 3.861352-12037 3102   36
 0.14782287 3.676300-1 0.16305408 3.500159-1 0.17985468 3.332496-12037 3102   37
 0.19838636 3.172967-1 0.21882748 3.021471-1 0.24137480 2.877265-12037 3102   38
 0.26624532 2.739458-1 0.29367842 2.608165-1 0.32393815 2.483193-12037 3102   39
 0.35731575 2.364235-1 0.39413248 2.251108-1 0.43474269 2.143963-12037 3102   40
 0.48291995 2.034184-1 0.53267855 1.936651-1 0.58756412 1.843821-12037 3102   41
 0.64810494 1.755464-1 0.71488369 1.671357-1 0.78854313 1.591423-12037 3102   42
 0.87588483 1.510507-1 0.96613333 1.438040-1 1.06568076 1.369063-12037 3102   43
 1.17548526 1.303429-1 1.29660368 1.240964-1 1.43020176 1.181487-12037 3102   44
 1.57756539 1.124876-1 1.74011292 1.071041-1 1.94648825 1.012857-12037 3102   45
 2.16219396 9.609274-2 2.38497983 9.148865-2 2.63072087 8.709720-22037 3102   46
 2.90178233 8.292374-2 3.20077313 7.894649-2 3.53057103 7.517238-22037 3102   47
 3.94929257 7.108180-2 4.35621563 6.767688-2 4.77140880 6.465623-22037 3102   48
 5.26304021 6.154441-2 5.80532782 5.859690-2 6.40349109 5.578160-22037 3102   49
 7.06328729 5.311123-2 7.84602583 5.039114-2 8.59383463 4.814247-22037 3102   50
 9.41337935 4.599390-2 10.3105734 4.393433-2 11.4531694 4.167397-22037 3102   51
 12.6332690 3.966510-2 13.9349625 3.775868-2 15.5876326 3.569582-22037 3102   52
 17.1937347 3.398232-2 18.7014804 3.257422-2 20.3414428 3.122317-22037 3102   53
 22.2801962 2.981474-2 24.5758797 2.837972-2 27.1081034 2.700692-22037 3102   54
 29.4852558 2.590000-2 31.6246969 2.499220-2 34.3979165 2.394874-22037 3102   55
 37.4143241 2.294978-2 40.6952453 2.199095-2 44.5761175 2.099003-22037 3102   56
 49.1691047 1.997191-2 54.2353393 1.899693-2 58.9913218 1.821021-22037 3102   57
 62.8285153 1.762651-2 68.3380471 1.688201-2 74.3307184 1.616940-22037 3102   58
 80.8488965 1.548548-2 87.9386639 1.482670-2 96.9995956 1.409277-22037 3102   59
 106.249891 1.343920-2 114.757600 1.291891-2 124.820875 1.236056-22037 3102   60
 136.724327 1.178473-2 148.713899 1.127484-2 160.621813 1.082485-22037 3102   61
 173.491738 1.039073-2 190.027325 9.894654-3 208.149142 9.424797-32037 3102   62
 226.402069 9.007502-3 249.729847 8.540233-3 273.531728 8.125168-32037 3102   63
 297.518158 7.756933-3 321.356990 7.431333-3 347.088891 7.117191-32037 3102   64
 377.525665 6.785177-3 413.528122 6.442087-3 449.791057 6.136175-32037 3102   65
 499.393628 5.773681-3 547.017935 5.470528-3 590.187749 5.226118-32037 3102   66
 637.476919 4.987116-3 688.521377 4.756406-3 736.626933 4.560128-32037 3102   67
 795.649635 4.342632-3 865.421409 4.114489-3 940.354561 3.896235-32037 3102   68
 1005.80697 3.728375-3 1086.34458 3.538476-3 1180.34994 3.342353-32037 3102   69
 1274.92624 3.166602-3 1367.43449 3.012003-3 1462.98003 2.867639-32037 3102   70
 1558.14212 2.736911-3 1659.57563 2.609881-3 1790.64600 2.460905-32037 3102   71
 1933.60306 2.317545-3 2088.29217 2.178477-3 2238.30200 2.057387-32037 3102   72
 2377.32697 1.957515-3 2531.96435 1.854395-3 2715.68291 1.744626-32037 3102   73
 2905.43926 1.642920-3 3087.02750 1.554878-3 3264.95858 1.476283-32037 3102   74
 3450.20399 1.401587-3 3631.79223 1.334460-3 3813.38149 1.272681-32037 3102   75
 4023.15065 1.207263-3 4284.84351 1.132934-3 4563.78257 1.062486-32037 3102   76
 4834.70200 1.000353-3 5120.36576 9.418075-4 5447.67567 8.812908-42037 3102   77
 5730.01300 8.340307-4 6131.08333 7.744706-4 6484.46867 7.275566-42037 3102   78
 6852.38382 6.837934-4 7213.03406 6.451634-4 7573.68531 6.102568-42037 3102   79
 7934.33555 5.786287-4 8332.87637 5.471203-4 8655.63604 5.237806-42037 3102   80
 9016.28729 4.999920-4 9376.93753 4.783333-4 9737.58777 4.586484-42037 3102   81
 10098.2350 4.408468-4 10458.8913 4.249461-4 10819.5375 4.110462-42037 3102   82
 11076.9112 4.029052-4 11280.9400 3.981325-4 11460.0000 3.963796-42037 3102   83
 11568.0001 3.976315-4 11604.0000 3.984814-4 11694.0001 4.032951-42037 3102   84
 11748.0000 4.085395-4 11784.0000 4.137603-4 11820.0000 4.209308-42037 3102   85
 11848.8000 4.286940-4 11877.6000 4.390540-4 11899.2000 4.492020-42037 3102   86
 11920.8000 4.621586-4 11935.2000 4.727955-4 11953.5963 4.896282-42037 3102   87
 11969.5814 5.082272-4 11981.5700 5.252194-4 11991.7739 5.423109-42037 3102   88
 12001.9776 5.623770-4 12012.1826 5.865083-4 12022.3900 6.155659-42037 3102   89
 12029.1951 6.382863-4 12036.0000 6.642739-4 12043.2001 6.962145-42037 3102   90
 12048.6001 7.237450-4 12054.0001 7.548980-4 12059.4001 7.904099-42037 3102   91
 12064.8000 8.309872-4 12069.7689 8.737299-4 12074.7376 9.227910-42037 3102   92
 12079.7064 9.794164-4 12083.0189 1.022149-3 12086.3314 1.069549-32037 3102   93
 12089.6438 1.122343-3 12092.7038 1.176626-3 12095.5114 1.231728-32037 3102   94
 12098.3189 1.292632-3 12101.1264 1.360215-3 12103.9339 1.435484-32037 3102   95
 12106.7414 1.519608-3 12109.5489 1.614036-3 12112.3563 1.720633-32037 3102   96
 12114.6601 1.818785-3 12117.3601 1.948184-3 12119.1601 2.044375-32037 3102   97
 12120.9600 2.149657-3 12122.7601 2.265228-3 12124.5601 2.392459-32037 3102   98
 12126.3601 2.532992-3 12128.1600 2.688738-3 12129.6001 2.825829-32037 3102   99
 12131.0401 2.975477-3 12132.4801 3.139287-3 12133.9201 3.319102-32037 3102  100
 12135.3601 3.517136-3 12136.8001 3.735932-3 12138.2401 3.978559-32037 3102  101
 12139.6800 4.248611-3 12141.1651 4.560494-3 12142.1551 4.789988-32037 3102  102
 12143.1451 5.039068-3 12144.1351 5.310077-3 12145.1251 5.605711-32037 3102  103
 12146.1151 5.929087-3 12147.1051 6.283851-3 12148.0051 6.637205-32037 3102  104
 12148.8151 6.983531-3 12149.6251 7.359922-3 12150.4351 7.770034-32037 3102  105
 12151.2451 8.218130-3 12152.0551 8.709163-3 12152.8651 9.248921-32037 3102  106
 12153.6751 9.844262-3 12154.3951 1.042672-2 12155.0251 1.098304-22037 3102  107
 12155.6551 1.158840-2 12156.2851 1.224901-2 12156.9151 1.297220-22037 3102  108
 12157.5451 1.376659-2 12158.1751 1.464244-2 12158.8051 1.561224-22037 3102  109
 12159.3676 1.657004-2 12159.8626 1.749570-2 12160.3576 1.851057-22037 3102  110
 12160.8526 1.962871-2 12161.3476 2.086806-2 12161.8426 2.225177-22037 3102  111
 12162.2139 2.340238-2 12162.5851 2.466778-2 12162.9564 2.606976-22037 3102  112
 12163.2826 2.743574-2 12163.5864 2.884181-2 12163.8901 3.040030-22037 3102  113
 12164.1939 3.214205-2 12164.4976 3.410109-2 12164.8014 3.632311-22037 3102  114
 12165.0039 3.797719-2 12165.2064 3.979123-2 12165.4089 4.178731-22037 3102  115
 12165.6114 4.399116-2 12165.8139 4.643181-2 12166.0164 4.914188-22037 3102  116
 12166.2188 5.215893-2 12166.4101 5.532971-2 12166.5901 5.863650-22037 3102  117
 12166.7702 6.229350-2 12166.9502 6.634274-2 12167.1302 7.083177-22037 3102  118
 12167.3102 7.581242-2 12167.4902 8.134065-2 12167.6701 8.747900-22037 3102  119
 12167.8501 9.429828-2 12167.9852 9.990662-2 12168.1201 1.059673-12037 3102  120
 12168.2552 1.125323-1 12168.3902 1.196242-1 12168.5252 1.272943-12037 3102  121
 12168.6601 1.355812-1 12168.7952 1.445381-1 12168.9301 1.542035-12037 3102  122
 12169.0652 1.646365-1 12169.2000 1.758752-1 12169.3351 1.880091-12037 3102  123
 12169.4701 2.010680-1 12169.6051 2.151272-1 12169.7401 2.302343-12037 3102  124
 12169.8751 2.464809-1 12170.0101 2.639088-1 12170.1451 2.826074-12037 3102  125
 12170.2800 3.026275-1 12170.4151 3.240837-1 12170.5501 3.470111-12037 3102  126
 12170.6851 3.715120-1 12170.8201 3.976368-1 12170.9551 4.255088-12037 3102  127
 12171.0901 4.551619-1 12171.2251 4.867081-1 12171.4107 5.333026-12037 3102  128
 12171.5626 5.743243-1 12171.7145 6.180979-1 12171.9171 6.808772-12037 3102  129
 12172.0689 7.313954-1 12172.2714 8.035620-1 12172.4739 8.813965-12037 3102  130
 12172.6764 9.650672-1 12172.8788 1.054725+0 12173.0701 1.145031+02037 3102  131
 12173.2501 1.235087+0 12173.5201 1.379354+0 12173.7901 1.534651+02037 3102  132
 12174.0601 1.700690+0 12174.3301 1.877146+0 12174.6301 2.084617+02037 3102  133
 12174.9801 2.340190+0 12175.4001 2.662950+0 12176.1851 3.293773+02037 3102  134
 12176.9401 3.896886+0 12177.4101 4.248345+0 12177.8151 4.524712+02037 3102  135
 12178.1600 4.734425+0 12178.5200 4.922934+0 12178.8500 5.064607+02037 3102  136
 12179.2000 5.178927+0 12179.4800 5.241879+0 12179.8250 5.283083+02037 3102  137
 12180.0000 5.288314+0 12180.3201 5.270468+0 12180.6501 5.215358+02037 3102  138
 12180.9700 5.127462+0 12181.2200 5.036304+0 12181.5500 4.887833+02037 3102  139
 12181.9400 4.675079+0 12182.3226 4.432687+0 12182.7350 4.141356+02037 3102  140
 12183.2001 3.785968+0 12184.6100 2.653901+0 12185.0414 2.323221+02037 3102  141
 12185.4008 2.061937+0 12185.6882 1.864202+0 12185.9401 1.700037+02037 3102  142
 12186.2101 1.534052+0 12186.4801 1.378935+0 12186.7501 1.234717+02037 3102  143
 12186.9301 1.144753+0 12187.1101 1.059687+0 12187.3126 9.697411-12037 3102  144
 12187.5376 8.768171-1 12187.7064 8.118623-1 12187.8751 7.508790-12037 3102  145
 12188.0439 6.936948-1 12188.2126 6.402206-1 12188.3814 5.902900-12037 3102  146
 12188.5501 5.438171-1 12188.7189 5.005605-1 12188.8876 4.604552-12037 3102  147
 12189.0676 4.209154-1 12189.2026 3.933478-1 12189.3377 3.674934-12037 3102  148
 12189.4726 3.432720-1 12189.6077 3.205985-1 12189.7427 2.993960-12037 3102  149
 12189.8777 2.795948-1 12190.0126 2.611199-1 12190.1476 2.438916-12037 3102  150
 12190.2827 2.278407-1 12190.4177 2.129059-1 12190.5527 1.990209-12037 3102  151
 12190.6876 1.861185-1 12190.8227 1.741381-1 12190.9576 1.630246-12037 3102  152
 12191.0926 1.527218-1 12191.2501 1.416496-1 12191.3852 1.329128-12037 3102  153
 12191.5201 1.248347-1 12191.6552 1.173500-1 12191.7902 1.104350-12037 3102  154
 12191.9252 1.040380-1 12192.0601 9.812583-2 12192.2401 9.093263-22037 3102  155
 12192.4201 8.445439-2 12192.6000 7.862426-2 12192.7801 7.336830-22037 3102  156
 12192.9601 6.863465-2 12193.1401 6.436480-2 12193.3201 6.051298-22037 3102  157
 12193.5001 5.703003-2 12193.6801 5.388041-2 12193.8601 5.102544-22037 3102  158
 12194.0400 4.843517-2 12194.2426 4.579741-2 12194.4451 4.342152-22037 3102  159
 12194.6476 4.127370-2 12194.8501 3.932751-2 12195.0526 3.755634-22037 3102  160
 12195.3564 3.518470-2 12195.6601 3.310228-2 12195.9639 3.125720-22037 3102  161
 12196.2676 2.961208-2 12196.5714 2.813352-2 12196.8751 2.679597-22037 3102  162
 12197.2800 2.519544-2 12197.6851 2.376771-2 12198.0901 2.248413-22037 3102  163
 12198.4952 2.132095-2 12198.9001 2.026052-2 12199.4400 1.898200-22037 3102  164
 12199.9801 1.783448-2 12200.5201 1.679850-2 12201.0601 1.585809-22037 3102  165
 12201.6000 1.500094-2 12202.1401 1.421627-2 12202.6801 1.349607-22037 3102  166
 12203.4001 1.262339-2 12204.1201 1.183796-2 12204.8401 1.112802-22037 3102  167
 12205.5601 1.048388-2 12206.2801 9.897423-3 12207.0001 9.361778-32037 3102  168
 12207.8101 8.812615-3 12208.7101 8.260604-3 12209.6101 7.762044-32037 3102  169
 12210.5101 7.310125-3 12211.4101 6.899093-3 12212.3101 6.524086-32037 3102  170
 12213.2101 6.180965-3 12214.1101 5.866164-3 12215.1226 5.542028-32037 3102  171
 12216.2476 5.214783-3 12217.3726 4.917977-3 12218.4976 4.647899-32037 3102  172
 12219.6226 4.401389-3 12220.7476 4.175753-3 12221.8726 3.968688-32037 3102  173
 12223.5600 3.688622-3 12225.1351 3.455858-3 12226.7101 3.246888-32037 3102  174
 12228.2851 3.058529-3 12229.8600 2.888160-3 12231.4351 2.733539-32037 3102  175
 12233.0101 2.592809-3 12234.5851 2.464346-3 12236.1600 2.346762-32037 3102  176
 12238.3588 2.198495-3 12240.5576 2.066269-3 12242.7564 1.947821-32037 3102  177
 12244.9551 1.841339-3 12247.1539 1.745281-3 12249.3526 1.658337-32037 3102  178
 12251.5513 1.579364-3 12253.7500 1.507403-3 12256.4976 1.426119-32037 3102  179
 12259.2451 1.353230-3 12261.9926 1.287621-3 12264.7401 1.228335-32037 3102  180
 12267.4876 1.174568-3 12271.6089 1.102903-3 12275.7300 1.040490-32037 3102  181
 12279.5763 9.891178-4 12283.4226 9.432569-4 12287.2689 9.021957-42037 3102  182
 12291.1151 8.653316-4 12296.8845 8.167365-4 12302.6538 7.748574-42037 3102  183
 12308.6988 7.368735-4 12315.2951 7.011073-4 12321.8914 6.701989-42037 3102  184
 12328.4876 6.433455-4 12332.8851 6.274310-4 12341.6800 5.993178-42037 3102  185
 12350.4726 5.752764-4 12359.2650 5.546691-4 12368.0576 5.368776-42037 3102  186
 12381.2463 5.143954-4 12394.4351 4.958897-4 12407.6238 4.804961-42037 3102  187
 12429.6051 4.600732-4 12447.1900 4.470675-4 12464.7751 4.363544-42037 3102  188
 12491.1551 4.235283-4 12517.5400 4.134509-4 12551.3000 4.034887-42037 3102  189
 12585.0700 3.957828-4 12635.7250 3.872133-4 12686.3751 3.811243-42037 3102  190
 12720.1400 3.775232-4 12787.6800 3.723791-4 12888.9801 3.672694-42037 3102  191
 12990.2851 3.642130-4 13057.8200 3.625436-4 13226.6500 3.611420-42037 3102  192
 13366.6032 3.622632-4 13463.0300 3.639035-4 13598.1000 3.683417-42037 3102  193
 13699.4001 3.735736-4 13800.7000 3.806600-4 13868.2400 3.868784-42037 3102  194
 13935.7700 3.945417-4 14003.3100 4.040000-4 14070.8400 4.157192-42037 3102  195
 14138.3800 4.303088-4 14189.0300 4.437494-4 14239.6800 4.596482-42037 3102  196
 14273.4500 4.720781-4 14307.2200 4.862072-4 14340.9800 5.023388-42037 3102  197
 14374.7500 5.208468-4 14408.5200 5.421983-4 14442.2900 5.669802-42037 3102  198
 14476.0500 5.958689-4 14501.3776 6.208683-4 14526.7051 6.492208-42037 3102  199
 14552.0326 6.817186-4 14577.3600 7.188766-4 14594.2401 7.468349-42037 3102  200
 14611.1200 7.777105-4 14628.0050 8.119144-4 14644.8900 8.499578-42037 3102  201
 14661.7751 8.923987-4 14678.6600 9.398660-4 14695.2501 9.923071-42037 3102  202
 14711.8400 1.051533-3 14728.4301 1.118733-3 14740.8726 1.175188-32037 3102  203
 14752.6226 1.234023-3 14764.0264 1.296934-3 14775.4300 1.366253-32037 3102  204
 14787.8764 1.450691-3 14800.3226 1.545514-3 14812.4213 1.649355-32037 3102  205
 14823.8250 1.759560-3 14835.2288 1.883553-3 14843.1776 1.979599-32037 3102  206
 14851.4726 2.089558-3 14859.7676 2.210649-3 14868.0626 2.344422-32037 3102  207
 14876.3576 2.492714-3 14884.6526 2.657703-3 14892.9476 2.841993-32037 3102  208
 14899.1689 2.994739-3 14905.3900 3.161645-3 14911.6114 3.344531-32037 3102  209
 14917.8326 3.545490-3 14924.0539 3.766994-3 14930.2751 4.011938-32037 3102  210
 14936.4963 4.283759-3 14942.3713 4.568793-3 14948.0733 4.875694-32037 3102  211
 14953.7751 5.216777-3 14959.4770 5.596644-3 14965.1788 6.021920-32037 3102  212
 14970.7088 6.486331-3 14975.8951 6.975558-3 14979.3526 7.334688-32037 3102  213
 14982.8101 7.723552-3 14986.2676 8.145502-3 14989.7251 8.604414-32037 3102  214
 14993.1826 9.104914-3 14996.6400 9.652224-3 15000.7858 1.037877-22037 3102  215
 15004.9314 1.119361-2 15007.6951 1.179293-2 15010.4589 1.244306-22037 3102  216
 15013.2226 1.315003-2 15015.9863 1.392083-2 15018.7500 1.476315-22037 3102  217
 15022.1214 1.590075-2 15024.3689 1.673543-2 15026.6164 1.763906-22037 3102  218
 15028.8639 1.861933-2 15031.1114 1.968490-2 15033.3589 2.084583-22037 3102  219
 15035.6063 2.211421-2 15037.5938 2.333693-2 15040.1851 2.509337-22037 3102  220
 15042.7764 2.706074-2 15044.5039 2.850626-2 15046.2314 3.007273-22037 3102  221
 15047.9589 3.177393-2 15049.6863 3.362578-2 15051.2413 3.543679-22037 3102  222
 15053.3151 3.809211-2 15055.3889 4.106189-2 15056.7714 4.324155-22037 3102  223
 15058.1539 4.560186-2 15059.5364 4.816342-2 15060.9188 5.094993-22037 3102  224
 15062.1720 5.369291-2 15063.8576 5.775081-2 15065.5433 6.229298-22037 3102  225
 15066.6670 6.562916-2 15067.7908 6.924438-2 15068.9145 7.317109-22037 3102  226
 15070.0382 7.744686-2 15071.1351 8.199880-2 15072.2051 8.684456-22037 3102  227
 15073.2751 9.214119-2 15074.3451 9.794730-2 15075.5750 1.053406-12037 3102  228
 15076.7501 1.132313-1 15077.8200 1.212317-1 15078.8950 1.301761-12037 3102  229
 15079.7900 1.384181-1 15080.7601 1.482916-1 15081.7301 1.592901-12037 3102  230
 15082.6951 1.715304-1 15083.3851 1.811963-1 15084.0776 1.917709-12037 3102  231
 15084.7726 2.033770-1 15085.4301 2.153933-1 15086.0501 2.277689-12037 3102  232
 15086.6701 2.412905-1 15087.2901 2.561118-1 15087.9463 2.734187-12037 3102  233
 15088.4658 2.884627-1 15088.9850 3.048535-1 15089.5045 3.227786-12037 3102  234
 15090.0238 3.424342-1 15090.5426 3.640454-1 15091.0601 3.878594-12037 3102  235
 15091.5776 4.142710-1 15092.0951 4.436771-1 15092.6126 4.765652-12037 3102  236
 15093.1300 5.134950-1 15093.4763 5.408134-1 15093.8226 5.704750-12037 3102  237
 15094.1689 6.027546-1 15094.5150 6.379298-1 15094.8614 6.763489-12037 3102  238
 15095.2076 7.183469-1 15095.5538 7.643381-1 15095.9000 8.147367-12037 3102  239
 15096.2451 8.698502-1 15096.5901 9.303192-1 15096.9351 9.967166-12037 3102  240
 15097.2800 1.069597+0 15097.6251 1.149626+0 15097.9701 1.237399+02037 3102  241
 15098.3151 1.333620+0 15098.6600 1.438928+0 15098.9713 1.542377+02037 3102  242
 15099.2826 1.654264+0 15099.5939 1.775118+0 15099.9050 1.905329+02037 3102  243
 15100.2164 2.045400+0 15100.5276 2.195589+0 15100.8388 2.356256+02037 3102  244
 15101.1500 2.527530+0 15101.5301 2.751349+0 15101.9101 2.991136+02037 3102  245
 15102.2901 3.246670+0 15102.6700 3.517202+0 15103.1914 3.911070+02037 3102  246
 15103.7126 4.327454+0 15104.5776 5.053733+0 15105.7501 6.054186+02037 3102  247
 15106.3701 6.558427+0 15106.9851 7.019219+0 15107.4426 7.326210+02037 3102  248
 15107.9000 7.594927+0 15108.3401 7.811645+0 15108.7800 7.982475+02037 3102  249
 15109.2001 8.099259+0 15109.6151 8.167747+0 15110.0000 8.188365+02037 3102  250
 15110.4276 8.162401+0 15110.8301 8.091477+0 15111.3026 7.952610+02037 3102  251
 15111.6876 7.797474+0 15112.1701 7.554199+0 15112.4600 7.384307+02037 3102  252
 15113.0400 6.998571+0 15113.6650 6.527671+0 15114.4626 5.872079+02037 3102  253
 15115.8951 4.649815+0 15116.5701 4.096536+0 15117.0201 3.745962+02037 3102  254
 15117.4700 3.413631+0 15117.9526 3.079770+0 15118.3145 2.845719+02037 3102  255
 15118.6764 2.626165+0 15119.0383 2.421159+0 15119.4000 2.230706+02037 3102  256
 15119.7113 2.078161+0 15120.0226 1.935895+0 15120.3339 1.803493+02037 3102  257
 15120.6450 1.680618+0 15120.9564 1.566742+0 15121.2676 1.461478+02037 3102  258
 15121.5788 1.364281+0 15121.8900 1.274697+0 15122.1751 1.198833+02037 3102  259
 15122.4601 1.128568+0 15122.7452 1.063480+0 15123.0301 1.003232+02037 3102  260
 15123.4101 9.298020-1 15123.7901 8.635250-1 15124.1701 8.037123-12037 3102  261
 15124.5501 7.496675-1 15124.9300 7.007974-1 15125.2929 6.584154-12037 3102  262
 15125.6558 6.198112-1 15126.0186 5.845685-1 15126.3814 5.523439-12037 3102  263
 15126.7442 5.228078-1 15127.1070 4.956882-1 15127.5908 4.628526-12037 3102  264
 15128.0745 4.333510-1 15128.5582 4.067435-1 15129.0770 3.809997-12037 3102  265
 15129.6308 3.562779-1 15130.1845 3.340217-1 15130.7383 3.139006-12037 3102  266
 15131.2920 2.956373-1 15131.8458 2.789997-1 15132.3995 2.637929-12037 3102  267
 15132.9532 2.498504-1 15133.5757 2.355089-1 15134.2670 2.210365-12037 3102  268
 15134.9583 2.079044-1 15135.6495 1.959466-1 15136.3408 1.850221-12037 3102  269
 15137.0320 1.750118-1 15137.7233 1.658143-1 15138.4145 1.573416-12037 3102  270
 15139.1745 1.487717-1 15140.0033 1.402178-1 15140.8320 1.323963-12037 3102  271
 15141.6608 1.252242-1 15142.4895 1.186297-1 15143.3183 1.125515-12037 3102  272
 15144.5613 1.042877-1 15145.3900 9.928186-2 15146.4963 9.314943-22037 3102  273
 15147.6026 8.757635-2 15148.7089 8.249534-2 15149.8150 7.785019-22037 3102  274
 15150.9214 7.359111-2 15152.0276 6.967677-2 15153.1338 6.607003-22037 3102  275
 15154.2400 6.273958-2 15155.6226 5.892298-2 15157.0051 5.544803-22037 3102  276
 15158.3876 5.227462-2 15159.7700 4.936902-2 15161.1526 4.670144-22037 3102  277
 15162.5351 4.424686-2 15163.9176 4.198287-2 15165.3000 3.989031-22037 3102  278
 15167.0276 3.749032-2 15168.7551 3.530280-2 15170.4826 3.330305-22037 3102  279
 15172.2100 3.147031-2 15173.9376 2.978634-2 15175.6651 2.823576-22037 3102  280
 15177.3926 2.680484-2 15179.1200 2.548182-2 15181.1951 2.402037-22037 3102  281
 15183.2701 2.268355-2 15185.3451 2.145716-2 15187.4201 2.032891-22037 3102  282
 15189.4951 1.928804-2 15192.6076 1.787156-2 15195.7200 1.660720-22037 3102  283
 15198.4838 1.559515-2 15201.2476 1.467431-2 15204.0114 1.383404-22037 3102  284
 15206.7751 1.306539-2 15209.5389 1.236048-2 15212.3026 1.171238-22037 3102  285
 15215.0663 1.111494-2 15217.8300 1.056306-2 15221.2876 9.930110-32037 3102  286
 15224.7451 9.354044-3 15228.2026 8.828078-3 15231.6601 8.346412-32037 3102  287
 15235.1176 7.904269-3 15238.5751 7.497601-3 15242.0326 7.122612-32037 3102  288
 15245.4900 6.776019-3 15249.2913 6.424395-3 15253.0926 6.100587-32037 3102  289
 15256.8939 5.802088-3 15262.5958 5.396262-3 15268.2976 5.032798-32037 3102  290
 15273.9995 4.706201-3 15280.0476 4.395131-3 15286.2689 4.108078-32037 3102  291
 15292.4901 3.849974-3 15298.7114 3.617038-3 15304.9326 3.406110-32037 3102  292
 15311.1538 3.214496-3 15317.3751 3.039909-3 15323.5964 2.880386-32037 3102  293
 15329.8176 2.734246-3 15338.1126 2.557718-3 15346.4076 2.399477-32037 3102  294
 15354.7026 2.257081-3 15362.9976 2.128483-3 15371.2926 2.011954-32037 3102  295
 15379.9338 1.901833-3 15388.9214 1.798220-3 15397.9089 1.704009-32037 3102  296
 15406.8963 1.618184-3 15415.5376 1.542678-3 15427.9801 1.444581-32037 3102  297
 15440.4226 1.357359-3 15452.1726 1.283650-3 15463.5764 1.219063-32037 3102  298
 15474.9800 1.160321-3 15487.4226 1.102204-3 15499.8651 1.049565-32037 3102  299
 15516.4551 9.867445-4 15533.0451 9.311572-4 15550.4026 8.800012-42037 3102  300
 15559.4651 8.551791-4 15577.5900 8.101845-4 15595.7151 7.701037-42037 3102  301
 15613.8400 7.342680-4 15631.9600 7.020791-4 15650.0800 6.730591-42037 3102  302
 15668.2051 6.468065-4 15695.3926 6.119334-4 15722.5800 5.814361-42037 3102  303
 15749.7676 5.548159-4 15776.9551 5.312530-4 15795.0800 5.171381-42037 3102  304
 15831.3300 4.919396-4 15867.5700 4.701652-4 15903.8200 4.512481-42037 3102  305
 15940.0700 4.347010-4 15976.3200 4.201354-4 16012.5700 4.072386-42037 3102  306
 16066.9400 3.905691-4 16121.3100 3.762554-4 16175.6851 3.641107-42037 3102  307
 16266.3000 3.472493-4 16338.8000 3.362126-4 16411.3000 3.268385-42037 3102  308
 16483.7900 3.187855-4 16592.5400 3.087214-4 16701.2800 3.002895-42037 3102  309
 16846.2800 2.911938-4 16991.2700 2.838093-4 17136.2600 2.776866-42037 3102  310
 17353.7550 2.702945-4 17571.2400 2.642453-4 17861.2300 2.579002-42037 3102  311
 18240.9923 2.516567-4 18543.3001 2.477938-4 18936.6352 2.439970-42037 3102  312
 19241.6700 2.419825-4 19650.7830 2.407011-4 19793.8500 2.405180-42037 3102  313
 20069.9400 2.410277-4 20346.0300 2.426465-4 20622.1200 2.457617-42037 3102  314
 20829.1901 2.495495-4 20967.2350 2.529325-4 21105.2801 2.572546-42037 3102  315
 21174.3000 2.596988-4 21312.3500 2.659295-4 21450.3900 2.739887-42037 3102  316
 21553.9251 2.817106-4 21657.4600 2.911058-4 21726.4800 2.987075-42037 3102  317
 21795.5000 3.075950-4 21864.5300 3.180613-4 21950.8051 3.339618-42037 3102  318
 22002.5700 3.453339-4 22054.3351 3.585734-4 22106.1050 3.738248-42037 3102  319
 22140.6200 3.854509-4 22175.1300 3.984141-4 22209.6400 4.129231-42037 3102  320
 22244.1501 4.292323-4 22289.1901 4.537147-4 22320.7800 4.734667-42037 3102  321
 22352.3701 4.958598-4 22383.9601 5.211952-4 22415.5501 5.502336-42037 3102  322
 22447.1400 5.834319-4 22470.8351 6.117451-4 22494.5300 6.434372-42037 3102  323
 22518.2200 6.791320-4 22541.9100 7.193975-4 22561.6539 7.571382-42037 3102  324
 22581.3976 7.995397-4 22599.8251 8.430128-4 22615.6201 8.846392-42037 3102  325
 22631.4151 9.305793-4 22647.2101 9.814037-4 22663.0051 1.037841-32037 3102  326
 22678.8000 1.100738-3 22694.5951 1.171134-3 22710.3901 1.250253-32037 3102  327
 22726.1851 1.339620-3 22736.7151 1.405780-3 22747.2451 1.477951-32037 3102  328
 22757.7751 1.556888-3 22768.3051 1.643463-3 22778.8351 1.738695-32037 3102  329
 22789.3651 1.843779-3 22799.8951 1.960123-3 22809.7663 2.080895-32037 3102  330
 22818.9789 2.205209-3 22828.1914 2.341684-3 22837.4038 2.493178-32037 3102  331
 22846.6176 2.661901-3 22855.8326 2.850098-3 22862.7439 3.005876-32037 3102  332
 22869.6551 3.175895-3 22876.5663 3.361951-3 22883.4776 3.566108-32037 3102  333
 22890.3889 3.790753-3 22897.3001 4.038864-3 22904.2114 4.313853-32037 3102  334
 22911.1226 4.619461-3 22918.0332 4.960577-3 22924.9426 5.343004-32037 3102  335
 22929.5489 5.624340-3 22934.1551 5.929540-3 22938.7614 6.261292-32037 3102  336
 22943.3676 6.622747-3 22947.9738 7.017504-3 22952.5800 7.449426-32037 3102  337
 22958.0101 8.012860-3 22961.6301 8.426029-3 22965.2501 8.873498-32037 3102  338
 22968.8701 9.359061-3 22972.4901 9.886915-3 22976.1101 1.046195-22037 3102  339
 22979.7301 1.108993-2 22983.0207 1.171236-2 22987.4626 1.264116-22037 3102  340
 22990.4239 1.332448-2 22993.3851 1.406586-2 22996.3464 1.487216-22037 3102  341
 22999.3076 1.575114-2 23002.2688 1.671195-2 23005.2300 1.776501-22037 3102  342
 23008.6858 1.912682-2 23012.1414 2.065334-2 23014.4450 2.177585-22037 3102  343
 23016.7489 2.299333-2 23019.0526 2.431676-2 23021.3563 2.575914-22037 3102  344
 23023.6600 2.733546-2 23025.7651 2.890787-2 23027.8701 3.062206-22037 3102  345
 23029.9751 3.249582-2 23032.0800 3.454943-2 23033.7900 3.636654-22037 3102  346
 23036.1251 3.909171-2 23038.0000 4.151069-2 23039.9800 4.432041-22037 3102  347
 23041.9500 4.741214-2 23043.6301 5.031496-2 23045.5050 5.388465-22037 3102  348
 23047.4801 5.807698-2 23048.8001 6.116105-2 23050.3801 6.519079-22037 3102  349
 23051.7601 6.904959-2 23053.1400 7.326531-2 23054.4576 7.766627-22037 3102  350
 23055.7751 8.248099-2 23057.0926 8.776426-2 23058.4100 9.357902-22037 3102  351
 23059.7251 9.998843-2 23061.0400 1.070900-1 23062.3551 1.149894-12037 3102  352
 23063.3413 1.215122-1 23064.3288 1.286258-1 23065.3170 1.364007-12037 3102  353
 23066.3050 1.449155-1 23067.2933 1.542723-1 23068.2813 1.645843-12037 3102  354
 23069.2688 1.759837-1 23070.2551 1.886223-1 23071.2414 2.027100-12037 3102  355
 23072.2276 2.184791-1 23072.8851 2.300639-1 23073.5426 2.426211-12037 3102  356
 23074.2000 2.562610-1 23074.8588 2.711484-1 23075.5176 2.874020-12037 3102  357
 23076.1764 3.051976-1 23076.8351 3.247288-1 23077.4939 3.462300-12037 3102  358
 23078.1526 3.699557-1 23078.8113 3.962111-1 23079.4700 4.253326-12037 3102  359
 23079.9963 4.509266-1 23080.5226 4.788179-1 23081.0489 5.092580-12037 3102  360
 23081.5750 5.425038-1 23082.1014 5.788580-1 23082.6276 6.186148-12037 3102  361
 23083.1538 6.621146-1 23083.6800 7.096907-1 23084.1733 7.583195-12037 3102  362
 23084.6664 8.111382-1 23085.1595 8.684670-1 23085.6526 9.305878-12037 3102  363
 23086.1457 9.978007-1 23086.6388 1.070351+0 23087.1320 1.148475+02037 3102  364
 23087.6250 1.232317+0 23088.1183 1.322055+0 23088.6113 1.417676+02037 3102  365
 23089.2701 1.554573+0 23089.9301 1.701869+0 23090.5901 1.858561+02037 3102  366
 23091.5800 2.108552+0 23093.0614 2.503889+0 23094.5151 2.891173+02037 3102  367
 23095.3626 3.102706+0 23096.2100 3.294237+0 23097.0000 3.448141+02037 3102  368
 23097.5926 3.544425+0 23098.3151 3.636283+0 23098.8400 3.683799+02037 3102  369
 23099.3651 3.714153+0 23100.0000 3.727161+0 23100.5801 3.716104+02037 3102  370
 23101.0500 3.691235+0 23101.5801 3.646570+0 23102.2938 3.560036+02037 3102  371
 23102.8450 3.474101+0 23103.5800 3.336651+0 23104.4089 3.155430+02037 3102  372
 23105.2376 2.953210+0 23106.3826 2.652576+0 23108.1600 2.175349+02037 3102  373
 23109.1464 1.922359+0 23109.8039 1.762881+0 23110.4613 1.612333+02037 3102  374
 23111.0045 1.495344+0 23111.6476 1.365892+0 23112.2908 1.246458+02037 3102  375
 23112.9339 1.137020+0 23113.5770 1.037296+0 23114.0057 9.760162-12037 3102  376
 23114.4501 9.166918-1 23114.9101 8.595700-1 23115.3701 8.065904-12037 3102  377
 23115.8301 7.575120-1 23116.2901 7.120857-1 23116.7501 6.700671-12037 3102  378
 23117.2101 6.312191-1 23117.6701 5.953076-1 23118.1963 5.575321-12037 3102  379
 23118.7889 5.188489-1 23119.3814 4.838401-1 23119.9739 4.521183-12037 3102  380
 23120.5664 4.233301-1 23121.1589 3.971593-1 23121.7514 3.733241-12037 3102  381
 23122.3438 3.515719-1 23123.0020 3.295785-1 23123.7258 3.077179-12037 3102  382
 23124.4495 2.879957-1 23125.1733 2.701455-1 23125.8970 2.539378-12037 3102  383
 23126.6208 2.391768-1 23127.3445 2.256948-1 23128.0682 2.133468-12037 3102  384
 23128.8907 2.005311-1 23129.8120 1.875290-1 23130.7333 1.757767-12037 3102  385
 23131.6545 1.651165-1 23132.5758 1.554146-1 23133.4970 1.465577-12037 3102  386
 23134.4183 1.384491-1 23135.3395 1.310058-1 23136.3270 1.236839-12037 3102  387
 23137.3808 1.165367-1 23138.4345 1.099997-1 23139.4883 1.040048-12037 3102  388
 23140.5420 9.849277-2 23141.5958 9.341271-2 23143.1763 8.650745-22037 3102  389
 23144.2300 8.232569-2 23145.5463 7.751874-2 23146.8626 7.312567-22037 3102  390
 23148.1789 6.909959-2 23149.4951 6.540095-2 23150.8114 6.199447-22037 3102  391
 23152.1276 5.885056-2 23154.1020 5.456948-2 23155.5495 5.172399-22037 3102  392
 23157.1283 4.886945-2 23158.7070 4.624695-2 23160.2858 4.383164-22037 3102  393
 23161.8645 4.160188-2 23164.2326 3.856502-2 23166.6007 3.585077-22037 3102  394
 23168.4432 3.393390-2 23170.5495 3.192694-2 23172.6558 3.009494-22037 3102  395
 23174.7620 2.841804-2 23176.8683 2.687894-2 23178.9745 2.546269-22037 3102  396
 23181.0808 2.415641-2 23184.2400 2.237923-2 23186.8726 2.104522-22037 3102  397
 23189.5051 1.982816-2 23192.1376 1.871466-2 23194.7700 1.769335-22037 3102  398
 23197.4026 1.675433-2 23200.0351 1.588915-2 23202.6676 1.509024-22037 3102  399
 23205.3000 1.435099-2 23208.5913 1.350178-2 23211.8826 1.272693-22037 3102  400
 23215.1739 1.201796-2 23218.4650 1.136760-2 23221.7564 1.076957-22037 3102  401
 23225.0476 1.021846-2 23229.9845 9.469361-3 23233.6038 8.972396-32037 3102  402
 23237.5514 8.474906-3 23241.4989 8.019135-3 23245.4464 7.600344-32037 3102  403
 23249.3939 7.214091-3 23255.3151 6.688305-3 23261.2363 6.219143-32037 3102  404
 23265.5138 5.911242-3 23270.1214 5.605381-3 23274.7289 5.323527-32037 3102  405
 23281.6401 4.940506-3 23288.5514 4.598878-3 23295.4626 4.292899-32037 3102  406
 23302.3738 4.017809-3 23309.2851 3.769595-3 23316.1964 3.544846-32037 3102  407
 23323.1076 3.340665-3 23330.0189 3.154719-3 23336.9300 2.984897-32037 3102  408
 23343.8395 2.829298-3 23350.7489 2.686446-3 23359.9614 2.513487-32037 3102  409
 23369.1738 2.358115-3 23379.0451 2.209090-3 23389.5751 2.065944-32037 3102  410
 23400.1051 1.937490-3 23410.6351 1.821910-3 23421.1651 1.717541-32037 3102  411
 23431.6951 1.622978-3 23442.2251 1.537031-3 23452.7551 1.458685-32037 3102  412
 23463.2851 1.387069-3 23473.8151 1.321436-3 23489.6101 1.232804-32037 3102  413
 23505.4051 1.154361-3 23521.2000 1.084593-3 23536.9951 1.022277-32037 3102  414
 23552.7901 9.663813-4 23568.5851 9.160622-4 23584.3800 8.705960-42037 3102  415
 23600.1751 8.294134-4 23615.9701 7.923569-4 23632.4238 7.565287-42037 3102  416
 23650.1950 7.216624-4 23673.8900 6.801301-4 23697.5801 6.434960-42037 3102  417
 23721.2700 6.109615-4 23747.5950 5.789704-4 23773.9200 5.506948-42037 3102  418
 23805.5101 5.208832-4 23837.1001 4.947560-4 23868.6901 4.718865-42037 3102  419
 23900.2800 4.516310-4 23937.9301 4.306013-4 23979.6151 4.102333-42037 3102  420
 24023.3201 3.919428-4 24067.0300 3.760124-4 24110.7326 3.622375-42037 3102  421
 24147.1551 3.520347-4 24212.7200 3.362516-4 24270.9900 3.244501-42037 3102  422
 24329.2700 3.143662-4 24387.5400 3.057010-4 24445.8200 2.982212-42037 3102  423
 24533.2350 2.888969-4 24620.6500 2.812202-4 24737.2000 2.732479-42037 3102  424
 24853.7500 2.672289-4 24970.3000 2.627862-4 25086.8500 2.596613-42037 3102  425
 25203.4000 2.576908-4 25349.0900 2.567208-4 25436.5000 2.569431-42037 3102  426
 25553.0600 2.582040-4 25669.6100 2.606954-4 25786.1600 2.646454-42037 3102  427
 25880.1300 2.692026-4 25974.1000 2.751388-4 26036.7500 2.801700-42037 3102  428
 26099.4000 2.862272-4 26162.0400 2.935419-4 26224.6900 3.024205-42037 3102  429
 26287.3400 3.132502-4 26334.3276 3.230346-4 26381.3101 3.344955-42037 3102  430
 26428.2926 3.482175-4 26459.6176 3.587940-4 26490.9426 3.707755-42037 3102  431
 26522.2676 3.844145-4 26553.5926 4.000262-4 26569.2550 4.085496-42037 3102  432
 26600.5800 4.278450-4 26635.8151 4.532290-4 26659.3076 4.728903-42037 3102  433
 26682.8026 4.951745-4 26706.2951 5.205422-4 26729.7851 5.495839-42037 3102  434
 26747.4038 5.742155-4 26765.0251 6.017052-4 26782.6463 6.325066-42037 3102  435
 26799.8401 6.661709-4 26816.8201 7.037621-4 26833.8000 7.462951-42037 3102  436
 26850.7801 7.946832-4 26862.1001 8.307347-4 26873.4201 8.702590-42037 3102  437
 26884.3863 9.122131-4 26894.9989 9.568973-4 26905.6114 1.006065-32037 3102  438
 26916.2238 1.060312-3 26926.8363 1.120363-3 26937.4489 1.187068-32037 3102  439
 26948.0614 1.261316-3 26958.6738 1.344491-3 26968.9326 1.434842-32037 3102  440
 26978.8376 1.532813-3 26986.2664 1.614275-3 26993.6951 1.703554-32037 3102  441
 27001.1238 1.801685-3 27008.5526 1.909879-3 27015.9814 2.029564-32037 3102  442
 27023.4100 2.162421-3 27030.8389 2.310469-3 27038.2676 2.476109-32037 3102  443
 27045.5195 2.657557-3 27052.4176 2.851266-3 27059.3158 3.069034-32037 3102  444
 27063.9145 3.229582-3 27068.5133 3.404025-3 27073.1120 3.593867-32037 3102  445
 27077.7107 3.800981-3 27081.7788 4.000597-3 27087.0851 4.287487-32037 3102  446
 27092.3914 4.608657-3 27097.6976 4.969547-3 27101.2351 5.235496-32037 3102  447
 27104.7726 5.524472-3 27108.3100 5.839205-3 27111.4938 6.147116-32037 3102  448
 27114.6776 6.481097-3 27117.8614 6.844201-3 27121.0451 7.239908-32037 3102  449
 27124.2289 7.672284-3 27127.4126 8.145984-3 27130.5963 8.666492-32037 3102  450
 27133.7800 9.240178-3 27136.2563 9.727957-3 27138.7326 1.025652-22037 3102  451
 27141.2089 1.083057-2 27143.6851 1.145539-2 27146.1614 1.213715-22037 3102  452
 27148.6376 1.288288-2 27151.1138 1.370095-2 27153.5900 1.460120-22037 3102  453
 27156.2433 1.567044-2 27158.8964 1.686468-2 27160.6650 1.774030-22037 3102  454
 27162.4339 1.868771-2 27164.2026 1.971486-2 27165.9713 2.083105-22037 3102  455
 27167.7400 2.204675-2 27169.3313 2.323576-2 27170.9226 2.452551-22037 3102  456
 27172.5139 2.592794-2 27174.1050 2.745660-2 27175.6964 2.912751-22037 3102  457
 27177.2876 3.095882-2 27178.8788 3.297213-2 27180.4700 3.519242-22037 3102  458
 27182.1951 3.786835-2 27183.9201 4.086813-2 27185.0700 4.307492-22037 3102  459
 27186.2201 4.546998-2 27187.3701 4.807542-2 27188.5201 5.091768-22037 3102  460
 27189.6700 5.402680-2 27190.9101 5.772013-2 27192.1501 6.181825-22037 3102  461
 27193.3901 6.638526-2 27194.3201 7.016392-2 27195.2301 7.419520-22037 3102  462
 27196.1301 7.854917-2 27197.0300 8.331525-2 27198.0951 8.956805-22037 3102  463
 27199.0851 9.606948-2 27200.0726 1.033313-1 27200.7776 1.090653-12037 3102  464
 27201.4851 1.153485-1 27202.1951 1.222595-1 27202.9026 1.298365-12037 3102  465
 27203.6076 1.381752-1 27204.3151 1.474595-1 27205.0251 1.578513-12037 3102  466
 27205.6988 1.688770-1 27206.3364 1.805309-1 27206.8145 1.901702-12037 3102  467
 27207.2926 2.006852-1 27207.7707 2.121910-1 27208.2838 2.257846-12037 3102  468
 27208.8145 2.413901-1 27209.3450 2.587916-1 27209.8758 2.782667-12037 3102  469
 27210.4063 3.001076-1 27210.7600 3.161526-1 27211.1138 3.335271-12037 3102  470
 27211.4676 3.523412-1 27211.8214 3.727355-1 27212.1751 3.948437-12037 3102  471
 27212.5289 4.188325-1 27212.8826 4.448491-1 27213.2363 4.730757-12037 3102  472
 27213.5900 5.036802-1 27213.9438 5.368760-1 27214.2976 5.728341-12037 3102  473
 27214.6514 6.117710-1 27215.0050 6.538756-1 27215.3589 6.993837-12037 3102  474
 27215.7126 7.484752-1 27216.0663 8.013764-1 27216.4200 8.582645-12037 3102  475
 27216.7738 9.193768-1 27217.1276 9.848464-1 27217.4814 1.054863+02037 3102  476
 27217.8351 1.129537+0 27218.1889 1.209033+0 27218.7195 1.337433+02037 3102  477
 27219.2500 1.476907+0 27219.8151 1.637606+0 27220.3800 1.810396+02037 3102  478
 27220.9451 1.994567+0 27221.6863 2.251441+0 27222.5676 2.574469+02037 3102  479
 27224.6951 3.378605+0 27225.4051 3.632861+0 27226.0776 3.856440+02037 3102  480
 27226.7126 4.046520+0 27227.3201 4.204627+0 27227.9001 4.330274+02037 3102  481
 27228.3726 4.412292+0 27228.9200 4.482658+0 27229.4900 4.526274+02037 3102  482
 27230.0000 4.538824+0 27230.3400 4.533150+0 27230.9100 4.498600+02037 3102  483
 27231.4700 4.434849+0 27232.0350 4.342041+0 27232.6000 4.222732+02037 3102  484
 27233.2101 4.067163+0 27233.8200 3.887652+0 27234.4551 3.679924+02037 3102  485
 27235.3026 3.378390+0 27237.7801 2.444279+0 27238.5226 2.176633+02037 3102  486
 27239.1958 1.946928+0 27239.7633 1.764811+0 27240.3308 1.594383+02037 3102  487
 27240.7563 1.474669+0 27241.2170 1.353101+0 27241.7476 1.223447+02037 3102  488
 27242.1014 1.143124+0 27242.4551 1.067632+0 27242.8089 9.968125-12037 3102  489
 27243.1626 9.305740-1 27243.5163 8.687280-1 27243.8700 8.111233-12037 3102  490
 27244.2151 7.587975-1 27244.5601 7.101489-1 27244.9052 6.649592-12037 3102  491
 27245.2501 6.230494-1 27245.5951 5.842078-1 27245.9401 5.482558-12037 3102  492
 27246.2852 5.149951-1 27246.6301 4.842612-1 27246.9752 4.558468-12037 3102  493
 27247.3201 4.296098-1 27247.6914 4.036035-1 27248.1151 3.765101-12037 3102  494
 27248.5389 3.519182-1 27248.9626 3.295902-1 27249.3864 3.092936-12037 3102  495
 27249.8101 2.908299-1 27250.2339 2.739949-1 27250.6576 2.586350-12037 3102  496
 27251.0814 2.445901-1 27251.5051 2.317267-1 27252.0700 2.161993-12037 3102  497
 27252.5483 2.043327-1 27253.0264 1.934998-1 27253.3451 1.867927-12037 3102  498
 27253.9826 1.744711-1 27254.6201 1.634363-1 27255.2576 1.535042-12037 3102  499
 27255.8951 1.445281-1 27256.5326 1.363797-1 27257.1700 1.289556-12037 3102  500
 27257.8067 1.221729-1 27258.4433 1.159494-1 27259.2920 1.084101-12037 3102  501
 27260.1408 1.016246-1 27260.9895 9.548968-2 27261.8383 8.992023-22037 3102  502
 27262.6870 8.484565-2 27263.5357 8.020634-2 27264.4907 7.544380-22037 3102  503
 27265.5520 7.064928-2 27266.6133 6.631217-2 27267.6745 6.237432-22037 3102  504
 27268.7358 5.878669-2 27269.7970 5.550787-2 27270.8583 5.250266-22037 3102  505
 27271.9195 4.974074-2 27273.0688 4.699353-2 27274.3064 4.428768-22037 3102  506
 27275.5439 4.181352-2 27276.7814 3.954490-2 27278.0189 3.745930-22037 3102  507
 27279.2564 3.553731-2 27281.1126 3.292495-2 27282.3500 3.134299-22037 3102  508
 27283.9426 2.947216-2 27285.5351 2.776684-2 27287.1276 2.620772-22037 3102  509
 27288.7200 2.477853-2 27290.3126 2.346493-2 27291.9051 2.225486-22037 3102  510
 27293.4976 2.113756-2 27295.0900 2.010382-2 27297.2126 1.884180-22037 3102  511
 27299.3351 1.769710-2 27301.4576 1.665552-2 27303.5801 1.570504-22037 3102  512
 27305.7026 1.483520-2 27307.8251 1.403708-2 27309.9476 1.330282-22037 3102  513
 27312.0700 1.262569-2 27314.5463 1.190004-2 27317.0226 1.123625-22037 3102  514
 27319.4989 1.062746-2 27321.9751 1.006786-2 27324.4514 9.552249-32037 3102  515
 27328.1658 8.851729-3 27331.8800 8.227384-3 27335.0638 7.744666-32037 3102  516
 27338.2476 7.304390-3 27341.4314 6.901692-3 27344.6151 6.532423-32037 3102  517
 27347.7989 6.192952-3 27350.9826 5.880172-3 27355.7582 5.455146-32037 3102  518
 27359.2957 5.170444-3 27363.1870 4.883290-3 27367.0783 4.620416-32037 3102  519
 27370.9695 4.379174-3 27374.8608 4.157308-3 27378.7520 3.952893-32037 3102  520
 27384.5888 3.675158-3 27388.4800 3.506816-3 27393.4326 3.309511-32037 3102  521
 27398.3851 3.129276-3 27403.3376 2.964304-3 27408.2900 2.812954-32037 3102  522
 27413.2426 2.673762-3 27420.6714 2.485048-3 27428.1000 2.317253-32037 3102  523
 27433.7601 2.201581-3 27439.4201 2.095198-3 27447.9101 1.950950-32037 3102  524
 27456.4001 1.822678-3 27464.8901 1.708106-3 27473.3800 1.605351-32037 3102  525
 27482.4008 1.507366-3 27491.4214 1.419377-3 27500.4420 1.340071-32037 3102  526
 27509.4626 1.268397-3 27518.4832 1.203441-3 27526.7963 1.148659-32037 3102  527
 27537.4089 1.085052-3 27548.0214 1.027722-3 27558.6338 9.758695-42037 3102  528
 27570.3076 9.243576-4 27583.0426 8.739911-4 27595.7776 8.287590-42037 3102  529
 27608.5126 7.879794-4 27620.5401 7.530793-4 27637.5200 7.089823-42037 3102  530
 27654.5001 6.700876-4 27671.1926 6.362152-4 27687.7414 6.062476-42037 3102  531
 27704.2900 5.792932-4 27722.7476 5.523951-4 27741.2051 5.283672-42037 3102  532
 27765.8126 5.001234-4 27790.4176 4.755323-4 27815.0251 4.539908-42037 3102  533
 27839.6351 4.350118-4 27864.2426 4.182309-4 27901.1500 3.965033-42037 3102  534
 27933.9601 3.799358-4 27966.7700 3.655490-4 27999.5801 3.529789-42037 3102  535
 28032.3900 3.419338-4 28081.6051 3.277803-4 28130.8200 3.158099-42037 3102  536
 28188.2401 3.042195-4 28262.0700 2.921097-4 28327.6900 2.833654-42037 3102  537
 28393.3100 2.761049-4 28458.9300 2.700219-4 28557.3600 2.626769-42037 3102  538
 28655.7900 2.567833-4 28721.4100 2.535809-4 28852.6500 2.484184-42037 3102  539
 28983.8900 2.445246-4 29180.7550 2.404470-4 29246.3800 2.393447-42037 3102  540
 29508.8600 2.364247-4 29771.3400 2.349337-4 30033.8200 2.344203-42037 3102  541
 30351.6124 2.348076-4 30821.2700 2.365097-4 31346.2400 2.398722-42037 3102  542
 31871.2000 2.443753-4 32320.8453 2.490294-4 32890.0000 2.559166-42037 3102  543
 33412.0800 2.632127-4 33934.1600 2.714830-4 34412.9099 2.800118-42037 3102  544
 34978.3100 2.912211-4 35471.7910 3.022439-4 36022.4700 3.159347-42037 3102  545
 36530.6822 3.301267-4 37046.0644 3.462008-4 37568.7177 3.644590-42037 3102  546
 38098.7447 3.852768-4 38632.8600 4.089857-4 39154.9400 4.352555-42037 3102  547
 39546.5001 4.573851-4 39938.0600 4.815600-4 40329.6101 5.085816-42037 3102  548
 40721.1700 5.382509-4 41112.7300 5.716551-4 41489.6600 6.071187-42037 3102  549
 41836.2501 6.439750-4 41951.0701 6.584737-4 41994.9500 6.668393-42037 3102  550
 42011.9300 6.726519-4 42023.2651 6.794146-4 42031.7663 6.886247-42037 3102  551
 42036.4376 6.976583-4 42039.1939 7.069927-4 42040.5721 7.146090-42037 3102  552
 42041.9500 7.263744-4 42042.8689 7.381243-4 42043.7876 7.548073-42037 3102  553
 42044.4768 7.719377-4 42045.1658 7.944792-4 42045.6251 8.133457-42037 3102  554
 42046.0845 8.360056-4 42046.5439 8.631735-4 42047.0033 8.957008-42037 3102  555
 42047.4626 9.345480-4 42047.8072 9.685172-4 42048.1517 1.007182-32037 3102  556
 42048.4963 1.051138-3 42048.8407 1.101003-3 42049.1853 1.157489-32037 3102  557
 42049.5504 1.225404-3 42049.9259 1.304887-3 42050.3013 1.395230-32037 3102  558
 42050.6769 1.497734-3 42050.9272 1.573423-3 42051.1775 1.655474-32037 3102  559
 42051.4278 1.744331-3 42051.6782 1.840435-3 42051.9285 1.944222-32037 3102  560
 42052.1788 2.056155-3 42052.4291 2.176734-3 42052.6794 2.306452-32037 3102  561
 42052.9297 2.445791-3 42053.1800 2.595258-3 42053.4303 2.755411-32037 3102  562
 42053.6807 2.926774-3 42054.0561 3.205877-3 42054.4316 3.513099-32037 3102  563
 42054.8070 3.850069-3 42055.1825 4.218598-3 42055.5580 4.620174-32037 3102  564
 42055.9335 5.056389-3 42056.3088 5.528339-3 42056.6844 6.037635-32037 3102  565
 42057.0598 6.584799-3 42057.4354 7.171132-3 42057.8113 7.797304-32037 3102  566
 42058.1873 8.463158-3 42058.6886 9.412027-3 42059.1898 1.042928-22037 3102  567
 42059.6911 1.151246-2 42060.3176 1.295227-2 42061.0695 1.479145-22037 3102  568
 42061.9876 1.716447-2 42063.9900 2.251469-2 42064.8250 2.465776-22037 3102  569
 42065.6600 2.664657-2 42066.4101 2.824353-2 42067.0350 2.940050-22037 3102  570
 42067.7050 3.043475-2 42068.2000 3.104645-2 42068.7300 3.154649-22037 3102  571
 42069.3700 3.192551-2 42070.0000 3.205003-2 42070.6000 3.193650-22037 3102  572
 42071.1700 3.162108-2 42071.8200 3.102267-2 42072.2900 3.043953-22037 3102  573
 42072.9400 2.944062-2 42073.5926 2.823561-2 42074.1376 2.709473-22037 3102  574
 42074.7926 2.558918-2 42075.6651 2.341135-2 42077.3000 1.906352-22037 3102  575
 42078.3151 1.636904-2 42079.0764 1.442607-2 42079.5839 1.318713-22037 3102  576
 42080.2183 1.171589-2 42080.7258 1.060851-2 42081.2332 9.568058-32037 3102  577
 42081.6323 8.798777-3 42082.0406 8.057250-3 42082.4488 7.362575-32037 3102  578
 42082.8572 6.714119-3 42083.2655 6.111923-3 42083.6738 5.554776-32037 3102  579
 42084.0820 5.041582-3 42084.4904 4.570690-3 42084.7625 4.279500-32037 3102  580
 42085.0347 4.005796-3 42085.3069 3.749017-3 42085.5791 3.508536-32037 3102  581
 42085.8512 3.283655-3 42086.1235 3.073723-3 42086.3957 2.878128-32037 3102  582
 42086.6678 2.696196-3 42086.9400 2.527230-3 42087.2122 2.370566-32037 3102  583
 42087.4844 2.225563-3 42087.7566 2.091570-3 42088.0288 1.967923-32037 3102  584
 42088.3010 1.854003-3 42088.5732 1.749230-3 42088.8453 1.653017-32037 3102  585
 42089.1175 1.564785-3 42089.3897 1.483994-3 42089.6619 1.410135-32037 3102  586
 42089.9340 1.342708-3 42090.2878 1.263895-3 42090.6143 1.199225-32037 3102  587
 42090.9407 1.141606-3 42091.2673 1.090312-3 42091.5938 1.044778-32037 3102  588
 42091.9203 1.004400-3 42092.2467 9.686631-4 42092.6820 9.273969-42037 3102  589
 42093.1174 8.924819-4 42093.5526 8.630173-4 42093.9880 8.381862-42037 3102  590
 42094.4233 8.173061-4 42095.0763 7.920773-4 42095.7293 7.726777-42037 3102  591
 42096.1645 7.623011-4 42097.0351 7.462362-4 42097.9058 7.347881-42037 3102  592
 42099.2118 7.232380-4 42100.5176 7.157824-4 42103.1295 7.068781-42037 3102  593
 42107.4826 6.989141-4 42114.4476 6.921609-4 42124.8951 6.874143-42037 3102  594
 42145.7900 6.848683-4 42201.5076 6.879755-4 42379.9650 7.092462-42037 3102  595
 42699.7300 7.530105-4 43019.5000 8.019475-4 43339.2700 8.565510-42037 3102  596
 43659.0500 9.177031-4 43952.1701 9.804178-4 44245.2900 1.050525-32037 3102  597
 44511.7600 1.121687-3 44778.2400 1.201017-3 45018.0650 1.280499-32037 3102  598
 45257.9000 1.368708-3 45497.7251 1.467110-3 45710.9000 1.564329-32037 3102  599
 45924.0800 1.672135-3 46137.2600 1.792105-3 46323.8000 1.908457-32037 3102  600
 46510.3250 2.037185-3 46696.8600 2.179739-3 46883.3950 2.338538-32037 3102  601
 47043.2801 2.489211-3 47203.1651 2.655311-3 47363.0500 2.838978-32037 3102  602
 47522.9351 3.042723-3 47656.1700 3.229770-3 47816.0500 3.478383-32037 3102  603
 47949.2901 3.708533-3 48082.5300 3.961736-3 48215.7700 4.242336-32037 3102  604
 48349.0000 4.552828-3 48482.2450 4.899088-3 48588.8300 5.204451-32037 3102  605
 48695.4250 5.538615-3 48802.0100 5.905119-3 48908.6050 6.308017-32037 3102  606
 48988.5451 6.636103-3 49095.1350 7.114183-3 49201.7251 7.643291-32037 3102  607
 49308.3150 8.230105-3 49388.2576 8.714164-3 49468.2000 9.236385-32037 3102  608
 49548.1426 9.806218-3 49628.0851 1.042252-2 49708.0276 1.109666-22037 3102  609
 49787.9700 1.182730-2 49867.9126 1.262819-2 49947.8550 1.349764-22037 3102  610
 50027.7976 1.445171-2 50107.7400 1.548803-2 50187.6826 1.662517-22037 3102  611
 50267.6251 1.785910-2 50347.5676 1.920974-2 50427.5100 2.067003-22037 3102  612
 50507.4526 2.225913-2 50576.7351 2.372859-2 50662.0050 2.566853-22037 3102  613
 50747.2801 2.773912-2 50875.1900 3.104612-2 51109.6900 3.730637-22037 3102  614
 51205.6151 3.967079-2 51269.5701 4.108283-2 51333.5250 4.231154-22037 3102  615
 51397.4800 4.331410-2 51461.4351 4.405244-2 51525.3850 4.449633-22037 3102  616
 51582.9500 4.463059-2 51621.3200 4.457387-2 51685.2700 4.422566-22037 3102  617
 51749.2300 4.357538-2 51813.1800 4.264769-2 51877.1300 4.147801-22037 3102  618
 51941.0900 4.010788-2 52037.0200 3.777419-2 52196.9000 3.349476-22037 3102  619
 52367.4500 2.891105-2 52452.7200 2.674310-2 52537.9900 2.469810-22037 3102  620
 52623.2600 2.279067-2 52695.2151 2.129694-2 52772.4950 1.979755-22037 3102  621
 52852.4376 1.837394-2 52932.3800 1.705989-2 53012.3151 1.586159-22037 3102  622
 53092.2550 1.475888-2 53172.1976 1.375517-2 53252.1400 1.283211-22037 3102  623
 53332.0826 1.199188-2 53412.0250 1.121857-2 53491.9701 1.051355-22037 3102  624
 53571.9200 9.863630-3 53651.8551 9.269847-3 53731.7951 8.721288-32037 3102  625
 53811.7376 8.218739-3 53891.6800 7.753309-3 53971.6251 7.329246-32037 3102  626
 54051.5700 6.929521-3 54158.1600 6.446769-3 54264.7500 6.010288-32037 3102  627
 54371.3400 5.614689-3 54477.9300 5.255289-3 54584.5200 4.928020-32037 3102  628
 54691.1100 4.629336-3 54797.7000 4.356142-3 54904.2900 4.105734-32037 3102  629
 55010.8800 3.875739-3 55117.4700 3.664076-3 55224.0600 3.468910-32037 3102  630
 55330.6500 3.288625-3 55437.2400 3.121790-3 55543.8300 2.967136-32037 3102  631
 55650.4200 2.823540-3 55757.0100 2.689998-3 55863.6000 2.565616-32037 3102  632
 56023.4851 2.395188-3 56183.3700 2.239852-3 56343.2550 2.100216-32037 3102  633
 56503.1400 1.972264-3 56663.0250 1.856551-3 56822.9100 1.750012-32037 3102  634
 56982.7951 1.653144-3 57142.6800 1.563614-3 57355.8600 1.455628-32037 3102  635
 57569.0400 1.358591-3 57782.2200 1.271133-3 57995.4000 1.192055-32037 3102  636
 58208.5800 1.120335-3 58421.7600 1.055104-3 58634.9400 9.956133-42037 3102  637
 58848.1200 9.412209-4 59061.3000 8.913686-4 59274.4800 8.455752-42037 3102  638
 59487.6600 8.034186-4 59700.8400 7.645326-4 59914.0200 7.285923-42037 3102  639
 60127.2000 6.953135-4 60340.3800 6.644471-4 60553.5600 6.357701-42037 3102  640
 60873.3300 5.966238-4 61193.1000 5.610098-4 61512.8700 5.291539-42037 3102  641
 61832.6400 5.000156-4 62152.4100 4.737949-4 62472.1800 4.497007-42037 3102  642
 62685.3600 4.348981-4 63111.7200 4.078108-4 63538.0800 3.836957-42037 3102  643
 63964.4400 3.621661-4 64390.8000 3.428939-4 64817.1600 3.256011-42037 3102  644
 65350.1101 3.064519-4 65776.4700 2.927782-4 66096.2400 2.834418-42037 3102  645
 66522.6000 2.720703-4 67055.5500 2.594183-4 67588.5000 2.483243-42037 3102  646
 68121.4500 2.386396-4 68654.4000 2.302491-4 69187.3500 2.230789-42037 3102  647
 69720.3000 2.170961-4 70253.2500 2.123228-4 70786.2000 2.088545-42037 3102  648
 71185.9101 2.072890-4 71585.6300 2.066509-4 71852.1000 2.069606-42037 3102  649
 72118.5700 2.079721-4 72385.0500 2.098657-4 72718.1401 2.139180-42037 3102  650
 72918.0000 2.174788-4 73117.8550 2.223590-4 73251.0900 2.264426-42037 3102  651
 73384.3301 2.313986-4 73450.9500 2.341503-4 73584.1900 2.407992-42037 3102  652
 73717.4300 2.489591-4 73817.3500 2.563766-4 73917.2800 2.650732-42037 3102  653
 74017.2100 2.755472-4 74083.8301 2.836312-4 74150.4500 2.928072-42037 3102  654
 74217.0700 3.032713-4 74250.3800 3.089451-4 74316.9900 3.217937-42037 3102  655
 74383.6100 3.366519-4 74466.8851 3.586517-4 74516.8500 3.741463-42037 3102  656
 74566.8151 3.917665-4 74616.7801 4.118080-4 74666.7451 4.348537-42037 3102  657
 74700.0551 4.521275-4 74733.3626 4.711898-4 74766.6676 4.922987-42037 3102  658
 74799.9751 5.157554-4 74833.2851 5.419157-4 74866.5951 5.712122-42037 3102  659
 74899.9051 6.041646-4 74916.5600 6.221054-4 74949.8700 6.615966-42037 3102  660
 74974.8526 6.947250-4 74999.8351 7.315104-4 75024.8176 7.723424-42037 3102  661
 75049.8000 8.178799-4 75070.0251 8.586707-4 75090.2501 9.034210-42037 3102  662
 75110.4751 9.526987-4 75130.7000 1.007152-3 75150.9276 1.067516-32037 3102  663
 75171.1551 1.134684-3 75191.3826 1.209730-3 75211.6100 1.293571-32037 3102  664
 75229.3076 1.375561-3 75247.0051 1.467230-3 75264.7026 1.569838-32037 3102  665
 75277.9757 1.655004-3 75291.2488 1.748207-3 75304.5220 1.850492-32037 3102  666
 75317.7951 1.963070-3 75331.0683 2.087408-3 75344.3413 2.225149-32037 3102  667
 75357.6613 2.378836-3 75371.0751 2.551579-3 75384.4889 2.745479-32037 3102  668
 75393.4314 2.888373-3 75402.3739 3.043506-3 75411.3164 3.212310-32037 3102  669
 75420.2588 3.396482-3 75428.6138 3.584116-3 75436.3814 3.773630-32037 3102  670
 75444.1489 3.979397-3 75451.9164 4.203353-3 75459.6839 4.447675-32037 3102  671
 75467.4514 4.714880-3 75475.2189 5.007961-3 75482.9863 5.330383-32037 3102  672
 75489.7832 5.639645-3 75498.5226 6.079553-3 75504.3489 6.402787-32037 3102  673
 75510.1751 6.753362-3 75516.0014 7.134731-3 75521.8276 7.550650-32037 3102  674
 75527.6538 8.005210-3 75533.4800 8.503004-3 75540.4701 9.164973-32037 3102  675
 75545.1301 9.650676-3 75549.7901 1.017654-2 75554.4501 1.074737-22037 3102  676
 75559.1101 1.136870-2 75563.7701 1.204683-2 75568.4301 1.278880-22037 3102  677
 75573.6738 1.371018-2 75578.0445 1.455752-2 75582.4150 1.548685-22037 3102  678
 75586.7858 1.650924-2 75591.1563 1.763757-2 75595.2351 1.879956-22037 3102  679
 75598.7300 1.989019-2 75602.2251 2.107965-2 75606.4950 2.268500-22037 3102  680
 75609.6000 2.397147-2 75613.1000 2.555849-2 75616.0101 2.700217-22037 3102  681
 75618.9201 2.857261-2 75622.3176 3.058713-2 75625.2326 3.249144-22037 3102  682
 75628.6326 3.494743-2 75631.5464 3.728187-2 75634.4600 3.985918-22037 3102  683
 75637.3739 4.271459-2 75640.2876 4.588908-2 75643.2001 4.943057-22037 3102  684
 75646.1101 5.339567-2 75648.0501 5.631061-2 75649.9900 5.947090-22037 3102  685
 75651.9326 6.290972-2 75653.8751 6.665509-2 75655.8176 7.074449-22037 3102  686
 75657.7600 7.522045-2 75659.7026 8.013319-2 75661.6451 8.553964-22037 3102  687
 75663.5876 9.150725-2 75665.5300 9.811380-2 75667.4701 1.054418-12037 3102  688
 75668.9251 1.114799-1 75670.3801 1.180395-1 75671.8351 1.251793-12037 3102  689
 75673.2900 1.329644-1 75674.7470 1.414825-1 75676.2039 1.508052-12037 3102  690
 75677.6608 1.610271-1 75679.1176 1.722513-1 75680.5745 1.845940-12037 3102  691
 75682.0313 1.981805-1 75683.4883 2.131482-1 75684.9450 2.296409-12037 3102  692
 75686.4020 2.478155-1 75687.8588 2.678247-1 75689.3157 2.898262-12037 3102  693
 75690.7726 3.139657-1 75692.2295 3.403741-1 75693.6864 3.691500-12037 3102  694
 75695.1433 4.003555-1 75696.6000 4.339909-1 75698.3476 4.774522-12037 3102  695
 75700.0951 5.240311-1 75702.7163 5.986084-1 75707.5714 7.422356-12037 3102  696
 75709.9600 8.087101-1 75711.4751 8.469481-1 75712.9901 8.808804-12037 3102  697
 75714.0000 9.006157-1 75715.5501 9.257131-1 75717.1000 9.437981-12037 3102  698
 75718.3751 9.529747-1 75719.9000 9.568670-1 75721.0801 9.545020-12037 3102  699
 75722.4588 9.458622-1 75723.6251 9.337793-1 75725.1800 9.112977-12037 3102  700
 75726.4626 8.877695-1 75727.7451 8.602961-1 75729.3763 8.205780-12037 3102  701
 75731.7051 7.570362-1 75738.2300 5.651659-1 75739.9401 5.173602-12037 3102  702
 75741.6500 4.721523-1 75743.1070 4.360105-1 75744.5639 4.022332-12037 3102  703
 75746.0208 3.708867-1 75747.4776 3.419726-1 75748.9345 3.154306-12037 3102  704
 75750.0026 2.974233-1 75751.1676 2.791184-1 75752.3326 2.621380-12037 3102  705
 75753.4976 2.464047-1 75754.6626 2.318379-1 75755.8276 2.183575-12037 3102  706
 75756.9926 2.058849-1 75758.1576 1.943435-1 75759.4195 1.828077-12037 3102  707
 75760.7783 1.714114-1 75762.1370 1.609797-1 75763.4958 1.514198-12037 3102  708
 75764.8545 1.426467-1 75766.2133 1.345839-1 75767.5720 1.271626-12037 3102  709
 75768.9307 1.203210-1 75770.3870 1.135687-1 75771.9408 1.069594-12037 3102  710
 75773.4945 1.009010-1 75775.0483 9.533593-2 75776.6020 9.021344-22037 3102  711
 75778.1558 8.548898-2 75779.7095 8.112331-2 75782.0400 7.517276-22037 3102  712
 75783.9813 7.069970-2 75785.9226 6.661338-2 75787.8639 6.287070-22037 3102  713
 75789.8050 5.943481-2 75791.7464 5.627301-2 75793.6876 5.335744-22037 3102  714
 75795.6288 5.066311-2 75797.5700 4.816846-2 75799.9013 4.540921-22037 3102  715
 75802.2326 4.288121-2 75804.5639 4.055911-2 75806.8951 3.842118-22037 3102  716
 75809.2264 3.644821-2 75812.7233 3.376254-2 75816.2200 3.136386-22037 3102  717
 75819.3263 2.944169-2 75822.4326 2.769166-2 75825.5389 2.609383-22037 3102  718
 75828.6451 2.463117-2 75831.7514 2.328878-2 75834.8576 2.205391-22037 3102  719
 75837.9638 2.091535-2 75841.0700 1.986337-2 75844.5663 1.877220-22037 3102  720
 75848.0626 1.776928-2 75851.5589 1.684532-2 75855.0550 1.599230-22037 3102  721
 75860.2995 1.483045-2 75865.5438 1.379212-2 75869.0400 1.316007-22037 3102  722
 75873.7001 1.238387-2 75878.3601 1.167546-2 75883.0201 1.102724-22037 3102  723
 75887.6800 1.043256-2 75892.3401 9.885467-3 75897.0001 9.380821-32037 3102  724
 75903.9901 8.693939-3 75909.2332 8.227530-3 75915.0595 7.752565-32037 3102  725
 75920.8858 7.318423-3 75926.7120 6.920796-3 75932.5383 6.555773-32037 3102  726
 75938.3645 6.219737-3 75947.1038 5.763152-3 75952.9300 5.486658-32037 3102  727
 75960.6976 5.148633-3 75968.4651 4.841797-3 75976.2326 4.562462-32037 3102  728
 75984.0001 4.307439-3 75991.7676 4.074009-3 75999.5351 3.859818-32037 3102  729
 76007.3026 3.662777-3 76015.0700 3.481076-3 76023.8076 3.293090-32037 3102  730
 76032.5451 3.120664-3 76041.2826 2.962122-3 76050.0201 2.816018-32037 3102  731
 76063.1264 2.617485-3 76076.2326 2.440467-3 76089.3395 2.281927-32037 3102  732
 76102.4476 2.139411-3 76115.5558 2.010983-3 76128.6639 1.895085-32037 3102  733
 76141.7720 1.789564-3 76154.8800 1.693187-3 76169.4433 1.595832-32037 3102  734
 76184.0064 1.507539-3 76198.5695 1.427195-3 76213.1326 1.353849-32037 3102  735
 76232.5500 1.265611-3 76251.9701 1.186885-3 76271.3901 1.116331-32037 3102  736
 76290.8101 1.052855-3 76310.2300 9.955446-4 76329.6501 9.436301-42037 3102  737
 76349.0700 8.964510-4 76368.4901 8.534506-4 76387.9100 8.141508-42037 3102  738
 76417.0364 7.612542-4 76446.1626 7.146026-4 76465.5800 6.866235-42037 3102  739
 76500.5339 6.413304-4 76535.4876 6.016198-4 76570.4413 5.667105-42037 3102  740
 76605.3951 5.358482-4 76640.3488 5.084287-4 76675.3026 4.839623-42037 3102  741
 76710.2564 4.620467-4 76745.2100 4.423456-4 76791.8151 4.190479-42037 3102  742
 76838.4200 3.985701-4 76885.0250 3.805405-4 76931.6300 3.645289-42037 3102  743
 76978.2351 3.504511-4 77024.8400 3.376132-4 77086.9800 3.226084-42037 3102  744
 77149.1200 3.095304-4 77211.2600 2.980642-4 77296.7026 2.844868-42037 3102  745
 77366.6100 2.749162-4 77459.8200 2.639541-4 77553.0300 2.546285-42037 3102  746
 77646.2400 2.466572-4 77770.5200 2.377138-4 77894.8000 2.303031-42037 3102  747
 78019.0800 2.241128-4 78143.3600 2.189088-4 78334.0400 2.124219-42037 3102  748
 78524.7100 2.073334-4 78715.3900 2.033187-4 78906.0600 2.001403-42037 3102  749
 79192.0750 1.966275-4 79287.4100 1.956526-4 79668.7600 1.929558-42037 3102  750
 80050.1200 1.915246-4 80431.4700 1.910497-4 80812.8200 1.913325-42037 3102  751
 81384.8451 1.929865-4 81956.8700 1.957251-4 82528.8951 1.997035-42037 3102  752
 83100.9200 2.047099-4 83482.2800 2.087868-4 83863.6300 2.135223-42037 3102  753
 84375.8200 2.212515-4 84768.3400 2.285022-4 85030.0200 2.344202-42037 3102  754
 85291.7000 2.416018-4 85487.9600 2.483116-4 85618.8001 2.536471-42037 3102  755
 85684.2200 2.565627-4 85815.0600 2.635078-4 85945.9000 2.721065-42037 3102  756
 86044.0301 2.801717-4 86109.4501 2.865652-4 86174.8701 2.940427-42037 3102  757
 86240.2901 3.029163-4 86273.0001 3.078747-4 86338.4200 3.196341-42037 3102  758
 86381.0601 3.287541-4 86423.7000 3.393775-4 86466.3400 3.518482-42037 3102  759
 86508.9800 3.666167-4 86544.9576 3.813743-4 86580.9351 3.988387-42037 3102  760
 86614.2476 4.178065-4 86642.2300 4.366778-4 86670.2126 4.587136-42037 3102  761
 86688.8676 4.755270-4 86707.5226 4.943750-4 86726.1776 5.155994-42037 3102  762
 86744.8326 5.394906-4 86763.4876 5.667317-4 86782.1426 5.980647-42037 3102  763
 86796.1339 6.246801-4 86810.1251 6.544360-4 86824.1163 6.878530-42037 3102  764
 86838.1076 7.255642-4 86852.0989 7.683462-4 86866.0900 8.171590-42037 3102  765
 86875.4176 8.536323-4 86884.7451 8.937408-4 86894.0726 9.379794-42037 3102  766
 86903.4000 9.868952-4 86914.3933 1.051445-3 86921.7220 1.099323-32037 3102  767
 86929.0508 1.151711-3 86936.3795 1.209182-3 86943.7083 1.272377-32037 3102  768
 86951.0370 1.342064-3 86958.3657 1.419165-3 86965.0282 1.496609-32037 3102  769
 86971.0245 1.573119-3 86977.0208 1.656936-3 86983.0170 1.749027-32037 3102  770
 86989.0133 1.850523-3 86995.0095 1.962756-3 87001.0058 2.087303-32037 3102  771
 87007.0020 2.226034-3 87012.1657 2.358565-3 87016.4970 2.480326-32037 3102  772
 87020.8283 2.612968-3 87025.1595 2.757827-3 87029.4908 2.916482-32037 3102  773
 87033.8220 3.090797-3 87038.1533 3.282969-3 87042.4845 3.495570-32037 3102  774
 87046.4813 3.712491-3 87050.1439 3.931179-3 87053.8064 4.171503-32037 3102  775
 87057.4688 4.436430-3 87060.9663 4.715606-3 87064.2989 5.008751-32037 3102  776
 87067.6314 5.332106-3 87070.9638 5.690012-3 87074.2951 6.087480-32037 3102  777
 87077.6251 6.530635-3 87080.1226 6.897489-3 87082.6201 7.297963-32037 3102  778
 87085.1176 7.736395-3 87087.4826 8.191093-3 87089.7814 8.674748-32037 3102  779
 87092.0801 9.204873-3 87094.3789 9.787844-3 87096.6776 1.043100-22037 3102  780
 87098.8263 1.109445-2 87100.6751 1.172000-2 87102.5239 1.240293-22037 3102  781
 87104.3726 1.315064-2 87106.2214 1.397193-2 87108.0700 1.487709-22037 3102  782
 87110.0689 1.596459-2 87112.0676 1.718352-2 87113.4000 1.808048-22037 3102  783
 87114.7326 1.905449-2 87116.0651 2.011504-2 87117.3976 2.127357-22037 3102  784
 87118.7300 2.254329-2 87120.0626 2.394038-2 87121.3951 2.548360-22037 3102  785
 87122.7276 2.719606-2 87124.0601 2.910542-2 87125.0596 3.068717-22037 3102  786
 87126.0589 3.241556-2 87127.0583 3.431080-2 87128.0576 3.639596-22037 3102  787
 87129.0570 3.869855-2 87129.8563 4.071788-2 87130.7889 4.329985-22037 3102  788
 87131.7214 4.615774-2 87132.6539 4.933039-2 87133.5864 5.286240-22037 3102  789
 87134.5189 5.680454-2 87135.2183 6.006461-2 87135.9176 6.361412-22037 3102  790
 87136.6170 6.748321-2 87137.1832 7.087141-2 87137.8495 7.517752-22037 3102  791
 87138.5158 7.985866-2 87139.1820 8.494833-2 87139.8483 9.048233-22037 3102  792
 87140.5145 9.649811-2 87141.1808 1.030344-1 87141.8470 1.101318-12037 3102  793
 87142.5132 1.178326-1 87143.1795 1.261796-1 87143.8458 1.352147-12037 3102  794
 87144.5120 1.449805-1 87145.1783 1.555192-1 87145.8445 1.668711-12037 3102  795
 87146.5108 1.790732-1 87147.1770 1.921602-1 87147.8101 2.054452-12037 3102  796
 87148.7101 2.257947-1 87149.6101 2.479044-1 87150.5101 2.717897-12037 3102  797
 87151.4101 2.974423-1 87152.3100 3.248104-1 87153.2426 3.548965-12037 3102  798
 87154.1751 3.865917-1 87155.5738 4.367187-1 87157.8714 5.235005-12037 3102  799
 87160.3050 6.159917-1 87161.6400 6.641051-1 87162.8400 7.042085-12037 3102  800
 87164.0400 7.402096-1 87165.1601 7.692120-1 87166.2800 7.930021-12037 3102  801
 87167.3976 8.109177-1 87168.3001 8.208013-1 87169.3151 8.267830-12037 3102  802
 87169.9000 8.277064-1 87170.6500 8.261734-1 87171.7100 8.188464-12037 3102  803
 87172.5876 8.083270-1 87173.4151 7.948802-1 87174.4851 7.727530-12037 3102  804
 87175.6051 7.444171-1 87176.7751 7.099505-1 87178.0276 6.685931-12037 3102  805
 87179.3626 6.207783-1 87183.6963 4.562659-1 87185.0951 4.051649-12037 3102  806
 87186.4938 3.569352-1 87187.4926 3.246640-1 87188.5576 2.924721-12037 3102  807
 87189.3564 2.699135-1 87190.1551 2.487499-1 87190.9538 2.289844-12037 3102  808
 87191.8863 2.076650-1 87192.5526 1.935673-1 87193.2189 1.803869-12037 3102  809
 87193.8850 1.680967-1 87194.5514 1.566586-1 87195.2176 1.460389-12037 3102  810
 87195.8838 1.361953-1 87196.5500 1.270882-1 87197.3551 1.170021-12037 3102  811
 87198.1601 1.078531-1 87198.9651 9.956461-2 87199.7701 9.206546-22037 3102  812
 87200.5751 8.528355-2 87201.3801 7.915435-2 87202.1851 7.361416-22037 3102  813
 87202.9900 6.860573-2 87203.7955 6.407165-2 87204.6008 5.996675-22037 3102  814
 87205.4061 5.624497-2 87206.2114 5.286603-2 87207.0167 4.979257-22037 3102  815
 87207.8220 4.699207-2 87208.6274 4.443478-2 87209.4326 4.209512-22037 3102  816
 87210.5063 3.927313-2 87211.5800 3.674850-2 87212.4858 3.481955-22037 3102  817
 87213.3914 3.305238-2 87214.5989 3.091623-2 87215.8064 2.899861-22037 3102  818
 87217.0139 2.726910-2 87218.2214 2.570247-2 87219.4289 2.427768-22037 3102  819
 87220.6363 2.297705-2 87222.0457 2.159616-2 87223.6570 2.017454-22037 3102  820
 87225.2683 1.889735-2 87226.8795 1.774468-2 87228.4908 1.670007-22037 3102  821
 87230.1020 1.574982-2 87231.7133 1.488248-2 87233.3245 1.408831-22037 3102  822
 87235.0701 1.330087-2 87236.9501 1.252772-2 87238.8301 1.182302-22037 3102  823
 87240.7101 1.117871-2 87242.5901 1.058792-2 87244.4701 1.004474-22037 3102  824
 87246.3501 9.544108-3 87249.1700 8.863458-3 87251.5863 8.338978-32037 3102  825
 87254.0026 7.861766-3 87256.4189 7.426208-3 87258.8350 7.027560-32037 3102  826
 87261.2514 6.661686-3 87263.6676 6.325084-3 87267.2920 5.868429-32037 3102  827
 87270.2451 5.533871-3 87273.7351 5.176138-3 87277.2251 4.854018-32037 3102  828
 87280.7151 4.562898-3 87284.2051 4.298872-3 87287.6951 4.058626-32037 3102  829
 87291.1851 3.839342-3 87294.6751 3.638616-3 87298.5682 3.434091-32037 3102  830
 87302.8645 3.229325-3 87307.1608 3.043862-3 87311.4570 2.875358-32037 3102  831
 87315.7533 2.721804-3 87320.0495 2.581480-3 87324.3458 2.452906-32037 3102  832
 87328.6420 2.334803-3 87333.4751 2.213080-3 87338.8451 2.090078-32037 3102  833
 87344.2151 1.978428-3 87349.5851 1.876773-3 87354.9551 1.783957-32037 3102  834
 87360.3251 1.698992-3 87368.3801 1.584454-3 87373.7500 1.515666-32037 3102  835
 87381.8051 1.422269-3 87389.8601 1.338980-3 87397.9151 1.264341-32037 3102  836
 87405.9701 1.197238-3 87414.0251 1.136731-3 87422.0801 1.081990-32037 3102  837
 87430.1351 1.032299-3 87438.1900 9.870555-4 87447.8563 9.379194-42037 3102  838
 87457.5226 8.937119-4 87467.1889 8.537938-4 87476.8550 8.176223-42037 3102  839
 87491.3545 7.694222-4 87505.8538 7.274164-4 87520.3532 6.906722-42037 3102  840
 87534.8526 6.583438-4 87549.3520 6.295670-4 87563.8514 6.039213-42037 3102  841
 87583.1838 5.739077-4 87603.5888 5.465666-4 87625.0664 5.217520-42037 3102  842
 87646.5439 5.003045-4 87668.0213 4.816464-4 87691.6501 4.638122-42037 3102  843
 87717.4301 4.470252-4 87743.2101 4.325932-4 87781.8800 4.144731-42037 3102  844
 87820.5576 3.995684-4 87859.2351 3.872914-4 87885.0200 3.802721-42037 3102  845
 87936.5951 3.685597-4 87988.1700 3.592316-4 88039.7400 3.519542-42037 3102  846
 88091.3100 3.458847-4 88160.0750 3.396823-4 88228.8400 3.350525-42037 3102  847
 88331.9801 3.303415-4 88435.1251 3.274265-4 88572.6500 3.256894-42037 3102  848
 88641.4100 3.254844-4 88847.7000 3.267632-4 89071.1800 3.304239-42037 3102  849
 89380.6101 3.380928-4 89733.0151 3.494242-4 90119.8100 3.643636-42037 3102  850
 90515.1901 3.820578-4 90927.7651 4.031073-4 91323.1500 4.259062-42037 3102  851
 91735.7300 4.527049-4 92148.3000 4.829657-4 92492.1101 5.111826-42037 3102  852
 92835.9300 5.424996-4 93179.7351 5.773333-4 93523.5500 6.161802-42037 3102  853
 93867.3601 6.597182-4 94142.4101 6.982602-4 94417.4650 7.406047-42037 3102  854
 94692.5100 7.872293-4 94967.5651 8.386823-4 95242.6150 8.955953-42037 3102  855
 95517.6601 9.586969-4 95792.7150 1.028825-3 96067.7651 1.106943-32037 3102  856
 96274.0500 1.171199-3 96480.3400 1.241565-3 96686.6200 1.317621-32037 3102  857
 96892.9101 1.401098-3 97099.2000 1.491479-3 97305.4900 1.590830-32037 3102  858
 97511.7800 1.698493-3 97718.0601 1.816882-3 97924.3500 1.945119-32037 3102  859
 98130.6401 2.085904-3 98336.9300 2.238011-3 98543.2100 2.404199-32037 3102  860
 98749.5000 2.582677-3 98969.5400 2.788541-3 99244.5900 3.066873-32037 3102  861
 99574.6500 3.426189-3 100234.800 4.173977-3 100509.800 4.459142-32037 3102  862
 100729.900 4.655875-3 100894.901 4.777672-3 101059.900 4.872485-32037 3102  863
 101224.951 4.936705-3 101390.000 4.967800-3 101456.000 4.970883-32037 3102  864
 101610.000 4.956192-3 101775.100 4.908812-3 101940.101 4.831471-32037 3102  865
 102160.101 4.691133-3 102435.200 4.492894-3 102545.200 4.434344-32037 3102  866
 102600.200 4.422928-3 102662.076 4.439756-3 102693.013 4.470183-32037 3102  867
 102723.951 4.525693-3 102744.576 4.581645-3 102765.200 4.663082-32037 3102  868
 102780.670 4.747054-3 102796.139 4.857725-3 102806.451 4.950893-32037 3102  869
 102816.764 5.065023-3 102827.076 5.206478-3 102837.388 5.383483-32037 3102  870
 102845.123 5.546431-3 102853.288 5.754544-3 102858.876 5.923572-32037 3102  871
 102864.464 6.119463-3 102870.050 6.348179-3 102875.639 6.617597-32037 3102  872
 102879.830 6.852332-3 102884.020 7.120959-3 102888.211 7.430337-32037 3102  873
 102892.400 7.788921-3 102895.626 8.105526-3 102898.851 8.464182-32037 3102  874
 102902.076 8.873022-3 102905.300 9.341870-3 102907.720 9.740808-32037 3102  875
 102910.139 1.018716-2 102912.558 1.068944-2 102914.976 1.125758-22037 3102  876
 102917.395 1.190471-2 102919.238 1.246087-2 102921.314 1.316438-22037 3102  877
 102923.389 1.396577-2 102924.946 1.464386-2 102926.500 1.539988-22037 3102  878
 102928.058 1.625053-2 102929.614 1.721267-2 102931.170 1.831196-22037 3102  879
 102932.208 1.913656-2 102933.245 2.004819-2 102934.282 2.106154-22037 3102  880
 102935.457 2.235562-2 102936.442 2.358246-2 102937.426 2.496110-22037 3102  881
 102938.411 2.652435-2 102939.395 2.830046-2 102940.050 2.962242-22037 3102  882
 102940.708 3.107485-2 102941.364 3.266745-2 102942.020 3.442089-22037 3102  883
 102942.676 3.635003-2 102943.333 3.848282-2 102943.988 4.083552-22037 3102  884
 102944.645 4.343913-2 102945.300 4.631573-2 102946.014 4.980084-22037 3102  885
 102946.726 5.368622-2 102947.439 5.802850-2 102948.151 6.287170-22037 3102  886
 102948.626 6.641210-2 102949.101 7.021097-2 102949.576 7.430792-22037 3102  887
 102950.051 7.869962-2 102950.526 8.341881-2 102951.001 8.846996-22037 3102  888
 102951.476 9.389776-2 102951.951 9.969762-2 102952.426 1.059084-12037 3102  889
 102953.088 1.152870-1 102953.651 1.239426-1 102954.214 1.332863-12037 3102  890
 102954.776 1.433281-1 102955.339 1.541214-1 102955.901 1.656605-12037 3102  891
 102956.464 1.780588-1 102957.026 1.912600-1 102957.776 2.102098-12037 3102  892
 102958.526 2.307317-1 102959.163 2.494535-1 102959.951 2.742056-12037 3102  893
 102960.739 3.007896-1 102961.526 3.291347-1 102962.314 3.592320-12037 3102  894
 102963.100 3.909277-1 102963.951 4.269613-1 102965.226 4.839495-12037 3102  895
 102966.876 5.616953-1 102970.076 7.165419-1 102971.800 7.957043-12037 3102  896
 102973.151 8.522446-1 102974.351 8.967219-1 102975.451 9.316332-12037 3102  897
 102976.500 9.588681-1 102977.600 9.803726-1 102978.576 9.929662-12037 3102  898
 102979.651 9.994598-1 102980.000 9.998741-1 102980.951 9.967723-12037 3102  899
 102981.651 9.905669-1 102982.701 9.751858-1 102983.601 9.564470-12037 3102  900
 102984.500 9.329506-1 102985.476 9.025189-1 102986.701 8.579492-12037 3102  901
 102988.151 7.977171-1 102989.800 7.222719-1 102994.076 5.162268-12037 3102  902
 102995.200 4.644021-1 102996.389 4.122278-1 102997.339 3.729053-12037 3102  903
 102998.289 3.359259-1 102999.000 3.098761-1 102999.920 2.783257-12037 3102  904
 103000.533 2.586829-1 103001.145 2.401410-1 103001.758 2.226804-12037 3102  905
 103002.370 2.062865-1 103002.983 1.909469-1 103003.595 1.766324-12037 3102  906
 103004.307 1.612099-1 103004.917 1.490225-1 103005.526 1.377579-12037 3102  907
 103006.136 1.273122-1 103006.745 1.176999-1 103007.355 1.088417-12037 3102  908
 103007.964 1.007064-1 103008.573 9.323420-2 103009.183 8.639887-22037 3102  909
 103009.792 8.014340-2 103010.400 7.444308-2 103010.963 6.960600-22037 3102  910
 103011.526 6.517328-2 103012.089 6.110288-2 103012.651 5.737699-22037 3102  911
 103013.214 5.395418-2 103013.776 5.082315-2 103014.339 4.795152-22037 3102  912
 103014.901 4.532452-2 103015.464 4.290963-2 103016.026 4.069931-22037 3102  913
 103016.589 3.866966-2 103017.151 3.680951-2 103017.995 3.429234-22037 3102  914
 103018.838 3.207406-2 103019.400 3.073989-2 103020.163 2.908827-22037 3102  915
 103020.926 2.760413-2 103021.689 2.626386-2 103022.451 2.505206-22037 3102  916
 103023.214 2.394962-2 103024.358 2.247662-2 103025.500 2.118718-22037 3102  917
 103026.645 2.004615-2 103027.789 1.903280-2 103028.933 1.812524-22037 3102  918
 103030.076 1.730819-2 103031.600 1.633637-2 103033.383 1.534083-22037 3102  919
 103035.164 1.447028-2 103036.945 1.370155-2 103038.726 1.301814-22037 3102  920
 103040.508 1.240627-2 103042.289 1.185585-2 103044.664 1.120282-22037 3102  921
 103047.039 1.062788-2 103049.413 1.011844-2 103052.295 9.573957-32037 3102  922
 103054.836 9.150187-3 103057.376 8.771455-3 103060.764 8.325257-32037 3102  923
 103064.151 7.935825-3 103067.539 7.593491-3 103070.926 7.290971-32037 3102  924
 103074.313 7.022049-3 103079.398 6.670957-3 103084.488 6.371125-32037 3102  925
 103089.580 6.112935-3 103094.670 5.888806-3 103101.458 5.632865-32037 3102  926
 103108.245 5.416367-3 103115.033 5.231334-3 103121.820 5.071706-32037 3102  927
 103132.000 4.870073-3 103141.513 4.713845-3 103151.026 4.581736-32037 3102  928
 103165.295 4.418082-3 103179.564 4.285167-3 103198.588 4.142105-32037 3102  929
 103219.638 4.016251-3 103242.714 3.905406-3 103277.326 3.774702-32037 3102  930
 103300.400 3.703270-3 103341.101 3.597705-3 103381.800 3.509391-32037 3102  931
 103466.500 3.359113-3 103537.339 3.252727-3 103655.400 3.096245-32037 3102  932
 103781.300 2.946807-3 103970.151 2.744332-3 104159.000 2.558628-32037 3102  933
 104347.851 2.389128-3 104536.700 2.231923-3 104725.550 2.087994-32037 3102  934
 104914.400 1.954542-3 105103.300 1.832492-3 105292.200 1.719425-32037 3102  935
 105481.050 1.616076-3 105669.900 1.520340-3 105858.750 1.432796-32037 3102  936
 106047.600 1.351641-3 106173.500 1.301326-3 106425.300 1.208455-32037 3102  937
 106677.200 1.124943-3 106929.000 1.049765-3 107180.800 9.819632-42037 3102  938
 107432.600 9.206948-4 107649.800 8.725327-4 107867.000 8.282855-42037 3102  939
 108138.500 7.778889-4 108410.000 7.323497-4 108673.300 6.923035-42037 3102  940
 108936.700 6.558695-4 109200.000 6.226612-4 109463.400 5.923379-42037 3102  941
 109726.700 5.646036-4 109990.000 5.391959-4 110253.400 5.158852-42037 3102  942
 110516.700 4.944684-4 110780.100 4.747655-4 111175.050 4.482284-42037 3102  943
 111570.100 4.244401-4 111965.101 4.035604-4 112360.100 3.847806-42037 3102  944
 112755.101 3.682424-4 113150.100 3.533461-4 113676.800 3.360674-42037 3102  945
 114203.500 3.212426-4 114730.200 3.085543-4 115256.800 2.977354-42037 3102  946
 115783.500 2.885649-4 116310.200 2.808626-4 116836.900 2.744786-42037 3102  947
 117375.200 2.691889-4 117913.500 2.650401-4 118451.800 2.619465-42037 3102  948
 118990.200 2.598361-4 119528.500 2.586567-4 120066.800 2.583645-42037 3102  949
 120605.101 2.589314-4 121143.400 2.603383-4 121681.800 2.625763-42037 3102  950
 122220.100 2.656475-4 122758.400 2.695637-4 123296.700 2.743450-42037 3102  951
 123835.000 2.800224-4 124373.400 2.866389-4 124911.700 2.942495-42037 3102  952
 125450.000 3.029225-4 126005.000 3.130667-4 126560.000 3.245500-42037 3102  953
 127115.000 3.375238-4 127670.000 3.521904-4 128391.500 3.742881-42037 3102  954
 128891.000 3.922004-4 129224.000 4.057498-4 129541.451 4.205507-42037 3102  955
 129834.500 4.369144-4 130001.000 4.483282-4 130112.000 4.574305-42037 3102  956
 130261.026 4.729330-4 130345.100 4.844376-4 130411.701 4.960022-42037 3102  957
 130478.300 5.109515-4 130522.700 5.238593-4 130567.101 5.400653-42037 3102  958
 130600.401 5.552947-4 130635.076 5.753916-4 130658.651 5.923051-42037 3102  959
 130682.226 6.128527-4 130699.907 6.313735-4 130717.601 6.532539-42037 3102  960
 130735.301 6.794456-4 130747.101 7.000016-4 130758.901 7.235972-42037 3102  961
 130770.701 7.508594-4 130782.501 7.825847-4 130794.301 8.197763-42037 3102  962
 130803.670 8.541225-4 130814.076 8.985712-4 130821.014 9.326971-42037 3102  963
 130827.951 9.711122-4 130834.889 1.014560-3 130841.826 1.063917-32037 3102  964
 130848.763 1.120307-3 130853.967 1.168048-3 130860.563 1.236561-32037 3102  965
 130865.426 1.293790-3 130870.289 1.357774-3 130875.151 1.429635-32037 3102  966
 130880.014 1.510798-3 130884.876 1.602939-3 130888.523 1.680541-32037 3102  967
 130892.170 1.766565-3 130896.157 1.871851-3 130899.270 1.963459-32037 3102  968
 130902.383 2.064587-3 130905.495 2.176633-3 130908.608 2.301285-32037 3102  969
 130911.720 2.440566-3 130914.833 2.596912-3 130917.167 2.727178-32037 3102  970
 130919.500 2.870164-3 130921.763 3.022828-3 130924.026 3.191127-32037 3102  971
 130926.289 3.377518-3 130928.550 3.584713-3 130930.814 3.816404-32037 3102  972
 130933.076 4.076688-3 130934.773 4.294116-3 130936.470 4.533400-32037 3102  973
 130937.600 4.706793-3 130939.326 4.996282-3 130941.051 5.320336-32037 3102  974
 130942.345 5.590497-3 130943.639 5.887383-3 130944.933 6.215934-32037 3102  975
 130946.226 6.581474-3 130947.520 6.991255-3 130948.814 7.453431-32037 3102  976
 130949.676 7.795899-3 130950.538 8.170540-3 130951.400 8.581125-32037 3102  977
 130952.320 9.065626-3 130953.239 9.603877-3 130954.158 1.020538-22037 3102  978
 130955.076 1.087923-2 130955.995 1.163799-2 130956.914 1.249401-22037 3102  979
 130957.526 1.312619-2 130958.139 1.381404-2 130958.751 1.456132-22037 3102  980
 130959.364 1.537682-2 130959.976 1.626409-2 130960.588 1.723226-22037 3102  981
 130961.200 1.828647-2 130961.923 1.965747-2 130962.645 2.117364-22037 3102  982
 130963.367 2.285427-2 130964.089 2.471346-2 130964.811 2.677315-22037 3102  983
 130965.533 2.904946-2 130966.255 3.156579-2 130966.976 3.433576-22037 3102  984
 130967.698 3.739481-2 130968.420 4.075186-2 130969.092 4.417363-22037 3102  985
 130969.663 4.732389-2 130970.236 5.071062-2 130970.808 5.433691-22037 3102  986
 130971.380 5.822150-2 130971.951 6.236244-2 130972.714 6.833537-22037 3102  987
 130973.476 7.482067-2 130974.238 8.185371-2 130975.000 8.944045-22037 3102  988
 130975.626 9.610811-2 130976.251 1.031630-1 130977.189 1.145111-12037 3102  989
 130978.126 1.267640-1 130979.064 1.399302-1 130980.000 1.539603-12037 3102  990
 130980.976 1.694831-1 130981.951 1.858436-1 130983.413 2.118022-12037 3102  991
 130985.300 2.471860-1 130989.200 3.221700-1 130990.951 3.538770-12037 3102  992
 130992.300 3.762932-1 130993.500 3.941774-1 130994.551 4.079396-12037 3102  993
 130995.601 4.196551-1 130996.851 4.306595-1 130998.000 4.377200-12037 3102  994
 130999.100 4.415707-1 131000.000 4.425531-1 131001.100 4.410796-12037 3102  995
 131001.900 4.381763-1 131003.100 4.310086-1 131004.300 4.206297-12037 3102  996
 131005.351 4.091023-1 131006.601 3.927325-1 131007.976 3.718517-12037 3102  997
 131009.400 3.476963-1 131011.276 3.131613-1 131015.488 2.321627-12037 3102  998
 131016.951 2.051794-1 131018.413 1.796214-1 131019.451 1.625697-12037 3102  999
 131020.551 1.455819-1 131021.376 1.336268-1 131022.201 1.223780-12037 3102 1000
 131023.026 1.118252-1 131023.651 1.043036-1 131024.351 9.635425-22037 3102 1001
 131025.051 8.890695-2 131025.751 8.195080-2 131026.451 7.546871-22037 3102 1002
 131027.151 6.944526-2 131027.851 6.386595-2 131028.551 5.871113-22037 3102 1003
 131029.126 5.477627-2 131029.801 5.048861-2 131030.477 4.653532-22037 3102 1004
 131031.151 4.290550-2 131031.827 3.957311-2 131032.500 3.652724-22037 3102 1005
 131033.177 3.373145-2 131033.851 3.118391-2 131034.527 2.885887-22037 3102 1006
 131035.201 2.674271-2 131035.876 2.481417-2 131036.404 2.342781-22037 3102 1007
 131037.011 2.195766-2 131037.617 2.060912-2 131038.223 1.937238-22037 3102 1008
 131038.830 1.823755-2 131039.436 1.719618-2 131040.042 1.624096-22037 3102 1009
 131040.648 1.536443-2 131041.254 1.455897-2 131041.861 1.381837-22037 3102 1010
 131042.467 1.313751-2 131043.376 1.221715-2 131044.286 1.140056-22037 3102 1011
 131045.195 1.067672-2 131045.800 1.023911-2 131046.582 9.720329-32037 3102 1012
 131047.363 9.249094-3 131048.145 8.819006-3 131049.317 8.241496-32037 3102 1013
 131050.489 7.733214-3 131051.661 7.282310-3 131052.833 6.880102-32037 3102 1014
 131054.005 6.518815-3 131055.176 6.192949-3 131056.348 5.896590-32037 3102 1015
 131057.520 5.626512-3 131058.820 5.352967-3 131060.376 5.056754-32037 3102 1016
 131061.933 4.789545-3 131063.489 4.547425-3 131065.564 4.257685-32037 3102 1017
 131067.639 4.000028-3 131069.714 3.769501-3 131071.789 3.562199-32037 3102 1018
 131073.863 3.374916-3 131076.288 3.177863-3 131079.064 2.977098-32037 3102 1019
 131081.839 2.798833-3 131084.614 2.639723-3 131087.389 2.497030-32037 3102 1020
 131090.164 2.368519-3 131092.939 2.252348-3 131095.713 2.146954-32037 3102 1021
 131099.007 2.034018-3 131102.820 1.917522-3 131106.633 1.814098-32037 3102 1022
 131110.445 1.721846-3 131114.258 1.639201-3 131118.070 1.564877-32037 3102 1023
 131121.883 1.497803-3 131127.600 1.408830-3 131132.804 1.338099-32037 3102 1024
 131138.008 1.275571-3 131143.211 1.219984-3 131148.414 1.170342-32037 3102 1025
 131155.351 1.111998-3 131162.289 1.061210-3 131169.226 1.016772-32037 3102 1026
 131176.163 9.777029-4 131186.051 9.297762-4 131194.901 8.932765-42037 3102 1027
 131203.752 8.616989-4 131212.601 8.341697-4 131224.401 8.026269-42037 3102 1028
 131236.201 7.759687-4 131248.001 7.533267-4 131265.701 7.254203-42037 3102 1029
 131283.051 7.036562-4 131299.701 6.867637-4 131321.900 6.690138-42037 3102 1030
 131344.101 6.556597-4 131366.300 6.457365-4 131399.526 6.359079-42037 3102 1031
 131432.751 6.310960-4 131454.900 6.303208-4 131482.001 6.318908-42037 3102 1032
 131509.101 6.362976-4 131536.201 6.438133-4 131563.300 6.549253-42037 3102 1033
 131587.751 6.688063-4 131612.201 6.874683-4 131630.539 7.054562-42037 3102 1034
 131648.876 7.280368-4 131666.188 7.548988-4 131681.451 7.843697-42037 3102 1035
 131691.626 8.078756-4 131701.801 8.352192-4 131711.976 8.672242-42037 3102 1036
 131722.151 9.050170-4 131729.783 9.380835-4 131737.413 9.760829-42037 3102 1037
 131745.557 1.023234-3 131751.670 1.064028-3 131757.783 1.110389-32037 3102 1038
 131763.895 1.163379-3 131770.008 1.224320-3 131774.592 1.276230-32037 3102 1039
 131779.176 1.334389-3 131783.761 1.399908-3 131788.345 1.474059-32037 3102 1040
 131793.101 1.561906-3 131796.501 1.632757-3 131799.901 1.711456-32037 3102 1041
 131803.301 1.799232-3 131806.701 1.897582-3 131810.101 2.008321-32037 3102 1042
 131813.501 2.133666-3 131816.051 2.238920-3 131818.600 2.355300-32037 3102 1043
 131820.976 2.475368-3 131823.351 2.608244-3 131825.726 2.756010-32037 3102 1044
 131828.101 2.921008-3 131830.476 3.106409-3 131832.258 3.261030-32037 3102 1045
 131834.039 3.431072-3 131835.820 3.619024-3 131837.600 3.827611-32037 3102 1046
 131839.288 4.048026-3 131840.976 4.294279-3 131842.664 4.571661-32037 3102 1047
 131843.929 4.803981-3 131845.195 5.060878-3 131846.461 5.346892-32037 3102 1048
 131847.726 5.666901-3 131848.992 6.028476-3 131850.257 6.439015-32037 3102 1049
 131851.442 6.877339-3 131852.463 7.305559-3 131853.486 7.789067-32037 3102 1050
 131854.508 8.336825-3 131855.189 8.743282-3 131855.870 9.187665-32037 3102 1051
 131856.551 9.673253-3 131857.233 1.020677-2 131857.914 1.079151-22037 3102 1052
 131858.595 1.143456-2 131859.276 1.214085-2 131859.958 1.291980-22037 3102 1053
 131860.638 1.377658-2 131861.320 1.472138-2 131862.000 1.576108-22037 3102 1054
 131862.714 1.696630-2 131863.426 1.829750-2 131864.139 1.977091-22037 3102 1055
 131864.851 2.139795-2 131865.564 2.319681-2 131866.276 2.518035-22037 3102 1056
 131866.989 2.736759-2 131867.701 2.976878-2 131868.414 3.241304-22037 3102 1057
 131869.126 3.530603-2 131869.788 3.824284-2 131870.351 4.093188-22037 3102 1058
 131870.914 4.381443-2 131871.476 4.689169-2 131872.226 5.131826-22037 3102 1059
 131872.976 5.613344-2 131873.726 6.135579-2 131874.476 6.699924-22037 3102 1060
 131875.226 7.307777-2 131875.907 7.899073-2 131876.826 8.756133-22037 3102 1061
 131877.745 9.683392-2 131878.664 1.067927-1 131879.583 1.174380-12037 3102 1062
 131880.500 1.287236-1 131881.451 1.410735-1 131882.876 1.607115-12037 3102 1063
 131884.300 1.814400-1 131887.101 2.240759-1 131889.376 2.585332-12037 3102 1064
 131891.051 2.824206-1 131892.576 3.021992-1 131894.000 3.183375-12037 3102 1065
 131895.051 3.284882-1 131896.000 3.362074-1 131897.150 3.435328-12037 3102 1066
 131898.201 3.481574-1 131899.200 3.506454-1 131900.000 3.512608-12037 3102 1067
 131901.200 3.498758-1 131902.100 3.470386-1 131903.300 3.409331-12037 3102 1068
 131904.500 3.323148-1 131905.800 3.203863-1 131907.151 3.054843-12037 3102 1069
 131908.701 2.857923-1 131910.401 2.618152-1 131912.951 2.232800-12037 3102 1070
 131915.676 1.818003-1 131917.101 1.610470-1 131918.526 1.413904-12037 3102 1071
 131919.613 1.273011-1 131920.533 1.160738-1 131921.451 1.055265-12037 3102 1072
 131922.370 9.564263-2 131923.288 8.646882-2 131923.900 8.074283-22037 3102 1073
 131924.576 7.477002-2 131925.251 6.917202-2 131925.926 6.392806-22037 3102 1074
 131926.601 5.903966-2 131927.276 5.447935-2 131927.951 5.024985-22037 3102 1075
 131928.626 4.632769-2 131929.300 4.270678-2 131930.014 3.917735-22037 3102 1076
 131930.726 3.595043-2 131931.439 3.299846-2 131932.151 3.030763-22037 3102 1077
 131932.864 2.785420-2 131933.576 2.562457-2 131934.289 2.359878-22037 3102 1078
 131935.001 2.176584-2 131935.714 2.010147-2 131936.426 1.859877-22037 3102 1079
 131936.900 1.767873-2 131937.482 1.663040-2 131938.063 1.566712-22037 3102 1080
 131938.645 1.477978-2 131939.226 1.396450-2 131939.808 1.321244-22037 3102 1081
 131940.389 1.252123-2 131940.970 1.188404-2 131941.551 1.129788-22037 3102 1082
 131942.424 1.050083-2 131943.295 9.795150-3 131944.167 9.167622-32037 3102 1083
 131945.038 8.608901-3 131945.910 8.109169-3 131946.582 7.759793-32037 3102 1084
 131947.345 7.396372-3 131948.108 7.064592-3 131949.251 6.618733-32037 3102 1085
 131950.396 6.224870-3 131951.539 5.875748-3 131952.683 5.563761-32037 3102 1086
 131953.826 5.283501-3 131954.970 5.030056-3 131956.114 4.799939-32037 3102 1087
 131957.638 4.523782-3 131958.951 4.309973-3 131960.601 4.067726-32037 3102 1088
 131962.252 3.850497-3 131963.901 3.654699-3 131965.001 3.534526-32037 3102 1089
 131967.201 3.315660-3 131969.401 3.121369-3 131971.601 2.948013-32037 3102 1090
 131973.801 2.792403-3 131976.000 2.652160-3 131978.551 2.505950-32037 3102 1091
 131981.101 2.375070-3 131983.652 2.257291-3 131986.201 2.150913-32037 3102 1092
 131989.601 2.024272-3 131993.001 1.912411-3 131996.401 1.813141-32037 3102 1093
 131999.801 1.724580-3 132003.200 1.645256-3 132007.270 1.560654-32037 3102 1094
 132011.339 1.485740-3 132015.408 1.419040-3 132019.476 1.359389-32037 3102 1095
 132024.900 1.289140-3 132030.326 1.227806-3 132035.751 1.173944-32037 3102 1096
 132041.176 1.126371-3 132048.807 1.068339-3 132055.426 1.025009-32037 3102 1097
 132062.045 9.870665-4 132068.664 9.536709-4 132077.489 9.150360-42037 3102 1098
 132086.314 8.819495-4 132095.139 8.533674-4 132108.376 8.172479-42037 3102 1099
 132117.200 7.968530-4 132130.101 7.712929-4 132143.001 7.498327-42037 3102 1100
 132162.351 7.236579-4 132181.701 7.030302-4 132194.601 6.915861-42037 3102 1101
 132220.400 6.729621-4 132246.176 6.587602-4 132284.839 6.430954-42037 3102 1102
 132323.500 6.323049-4 132375.451 6.226666-4 132427.400 6.166356-42037 3102 1103
 132505.251 6.120791-4 132583.100 6.107837-4 132738.800 6.140072-42037 3102 1104
 132946.400 6.243730-4 133154.000 6.384542-4 133465.500 6.640137-42037 3102 1105
 133776.900 6.930923-4 134084.951 7.256542-4 134386.000 7.607667-42037 3102 1106
 134687.150 8.005938-4 134887.900 8.302823-4 134988.300 8.460326-42037 3102 1107
 135189.000 8.822617-4 135289.400 9.035170-4 135414.876 9.355049-42037 3102 1108
 135490.100 9.597400-4 135540.301 9.795860-4 135602.963 1.010721-32037 3102 1109
 135640.351 1.034960-3 135677.738 1.065805-3 135701.363 1.090262-32037 3102 1110
 135723.689 1.118399-3 135746.014 1.153108-3 135762.758 1.185171-32037 3102 1111
 135779.500 1.224222-3 135793.283 1.263259-3 135807.064 1.310479-32037 3102 1112
 135816.250 1.347741-3 135825.439 1.390845-3 135834.626 1.441191-32037 3102 1113
 135843.813 1.500600-3 135850.704 1.552517-3 135858.576 1.621433-32037 3102 1114
 135864.151 1.677782-3 135869.726 1.741705-3 135875.301 1.814623-32037 3102 1115
 135880.876 1.898358-3 135886.451 1.995146-3 135890.633 2.078082-32037 3102 1116
 135894.813 2.171562-3 135899.245 2.284386-3 135902.533 2.378913-32037 3102 1117
 135905.820 2.484271-3 135909.108 2.602242-3 135912.395 2.735016-32037 3102 1118
 135915.683 2.885273-3 135918.970 3.056335-3 135921.436 3.200799-32037 3102 1119
 135923.900 3.361422-3 135926.188 3.527465-3 135928.476 3.712367-32037 3102 1120
 135930.764 3.919482-3 135933.051 4.152728-3 135934.767 4.348135-32037 3102 1121
 135936.483 4.563773-3 135938.198 4.803276-3 135939.913 5.070791-32037 3102 1122
 135941.629 5.372076-3 135943.026 5.647137-3 135944.264 5.917519-32037 3102 1123
 135945.501 6.216938-3 135946.739 6.551528-3 135947.976 6.926943-32037 3102 1124
 135949.214 7.351889-3 135950.451 7.836126-3 135951.276 8.198228-32037 3102 1125
 135952.101 8.596149-3 135952.926 9.036045-3 135953.751 9.522524-32037 3102 1126
 135954.576 1.006305-2 135955.400 1.066413-2 135956.311 1.140999-22037 3102 1127
 135957.220 1.225275-2 135957.826 1.287584-2 135958.433 1.355542-22037 3102 1128
 135959.039 1.429437-2 135959.645 1.510023-2 135960.250 1.597719-22037 3102 1129
 135960.858 1.693591-2 135961.464 1.797963-2 135962.070 1.911858-22037 3102 1130
 135962.676 2.035809-2 135963.283 2.171162-2 135963.888 2.318353-22037 3102 1131
 135964.495 2.478714-2 135965.100 2.652859-2 135965.814 2.877755-22037 3102 1132
 135966.526 3.124968-2 135967.239 3.397003-2 135967.951 3.695375-22037 3102 1133
 135968.664 4.022732-2 135969.376 4.380627-2 135970.089 4.771605-22037 3102 1134
 135970.801 5.196514-2 135971.514 5.659407-2 135972.226 6.160060-22037 3102 1135
 135973.032 6.776150-2 135973.695 7.323358-2 135974.358 7.908355-22037 3102 1136
 135975.020 8.532153-2 135975.683 9.195957-2 135976.345 9.900434-22037 3102 1137
 135977.338 1.103309-1 135978.295 1.221072-1 135979.176 1.337017-12037 3102 1138
 135980.058 1.459997-1 135981.233 1.634070-1 135982.407 1.818606-12037 3102 1139
 135984.051 2.091562-1 135986.976 2.601879-1 135989.000 2.954288-12037 3102 1140
 135990.726 3.239330-1 135992.250 3.469704-1 135993.601 3.650367-12037 3102 1141
 135994.800 3.788179-1 135996.100 3.909715-1 135997.200 3.987504-12037 3102 1142
 135998.300 4.040657-1 135999.500 4.069292-1 136000.000 4.072002-12037 3102 1143
 136001.200 4.056285-1 136002.000 4.028547-1 136003.100 3.968481-12037 3102 1144
 136004.300 3.875353-1 136005.600 3.744484-1 136006.876 3.589107-12037 3102 1145
 136008.400 3.373965-1 136010.076 3.109110-1 136011.800 2.816056-12037 3102 1146
 136015.626 2.146533-1 136017.014 1.912806-1 136018.400 1.690547-12037 3102 1147
 136019.576 1.512988-1 136020.458 1.387252-1 136021.339 1.268427-12037 3102 1148
 136022.220 1.156619-1 136023.100 1.052202-1 136023.888 9.647968-22037 3102 1149
 136024.676 8.832693-2 136025.464 8.073729-2 136026.250 7.371147-22037 3102 1150
 136027.039 6.721249-2 136027.826 6.123879-2 136028.417 5.707619-22037 3102 1151
 136029.007 5.319144-2 136029.629 4.937336-2 136030.313 4.548527-22037 3102 1152
 136030.998 4.190380-2 136031.683 3.861858-2 136032.367 3.560573-22037 3102 1153
 136033.051 3.285484-2 136033.736 3.033285-2 136034.420 2.803752-22037 3102 1154
 136035.105 2.594535-2 136035.788 2.404367-2 136036.473 2.231307-22037 3102 1155
 136037.032 2.101729-2 136037.695 1.960866-2 136038.358 1.832716-22037 3102 1156
 136039.020 1.716160-2 136039.683 1.610102-2 136040.345 1.513592-22037 3102 1157
 136041.008 1.425796-2 136041.670 1.345891-2 136042.333 1.273061-22037 3102 1158
 136042.995 1.206627-2 136043.658 1.146020-2 136044.320 1.090663-22037 3102 1159
 136044.983 1.040004-2 136045.976 9.718685-3 136046.970 9.118352-32037 3102 1160
 136047.710 8.716843-3 136048.530 8.312577-3 136049.348 7.945333-32037 3102 1161
 136050.576 7.454493-3 136051.805 7.023431-3 136053.033 6.643136-32037 3102 1162
 136054.261 6.304649-3 136055.489 6.001569-3 136056.717 5.728234-32037 3102 1163
 136057.945 5.480599-3 136059.582 5.184062-3 136061.057 4.944784-32037 3102 1164
 136063.026 4.659818-3 136064.995 4.407659-3 136066.964 4.183058-32037 3102 1165
 136068.933 3.981646-3 136070.900 3.800238-3 136073.526 3.584451-32037 3102 1166
 136076.151 3.394173-3 136078.776 3.225270-3 136081.400 3.074626-32037 3102 1167
 136084.111 2.935359-3 136086.820 2.810462-3 136090.433 2.662866-32037 3102 1168
 136094.045 2.533585-3 136097.658 2.419653-3 136101.270 2.318694-32037 3102 1169
 136104.883 2.228783-3 136110.300 2.111258-3 136115.223 2.019398-32037 3102 1170
 136120.145 1.939283-3 136123.426 1.891439-3 136129.989 1.807022-32037 3102 1171
 136136.551 1.735240-3 136143.114 1.673728-3 136149.676 1.620680-32037 3102 1172
 136159.520 1.553884-3 136168.376 1.504254-3 136179.526 1.452731-32037 3102 1173
 136190.676 1.410746-3 136201.826 1.376194-3 136218.551 1.335146-32037 3102 1174
 136235.276 1.303950-3 136252.000 1.280158-3 136275.626 1.255951-32037 3102 1175
 136299.250 1.239740-3 136322.876 1.229655-3 136357.000 1.223370-32037 3102 1176
 136367.500 1.223068-3 136407.626 1.228202-3 136447.751 1.243371-32037 3102 1177
 136474.500 1.259467-3 136498.126 1.278640-3 136521.750 1.303752-32037 3102 1178
 136545.376 1.336543-3 136563.095 1.368076-3 136578.851 1.402811-32037 3102 1179
 136593.626 1.442873-3 136608.400 1.492479-3 136618.251 1.532399-32037 3102 1180
 136628.101 1.579332-3 136637.951 1.635134-3 136647.800 1.702281-32037 3102 1181
 136656.651 1.775086-3 136662.551 1.831822-3 136668.451 1.896568-32037 3102 1182
 136674.351 1.970928-3 136680.251 2.056937-3 136686.151 2.157197-32037 3102 1183
 136690.576 2.243768-3 136695.000 2.342074-3 136698.613 2.432710-32037 3102 1184
 136702.226 2.534280-3 136705.839 2.648737-3 136709.451 2.778375-32037 3102 1185
 136713.064 2.926183-3 136716.676 3.095721-3 136719.386 3.239979-32037 3102 1186
 136722.095 3.401460-3 136725.132 3.606901-3 136727.595 3.795958-32037 3102 1187
 136730.058 4.009060-3 136732.520 4.250889-3 136734.367 4.454736-32037 3102 1188
 136736.214 4.681355-3 136738.061 4.935009-3 136739.908 5.220765-32037 3102 1189
 136741.755 5.545675-3 136742.985 5.788301-3 136744.420 6.102629-32037 3102 1190
 136745.649 6.403848-3 136746.876 6.739724-3 136748.105 7.117829-32037 3102 1191
 136749.333 7.545334-3 136750.561 8.033037-3 136751.380 8.397701-32037 3102 1192
 136752.199 8.798839-3 136753.017 9.241464-3 136753.836 9.731543-32037 3102 1193
 136754.655 1.027569-2 136755.473 1.088114-2 136756.292 1.155633-22037 3102 1194
 136756.989 1.219362-2 136757.851 1.307206-2 136758.714 1.406388-22037 3102 1195
 136759.289 1.479490-2 136759.864 1.558817-2 136760.439 1.644865-22037 3102 1196
 136761.014 1.738211-2 136761.589 1.839576-2 136762.164 1.949641-22037 3102 1197
 136762.739 2.069010-2 136763.314 2.198421-2 136763.889 2.338747-22037 3102 1198
 136764.464 2.490827-2 136765.039 2.655429-2 136765.614 2.833443-22037 3102 1199
 136766.326 3.074321-2 136766.964 3.310428-2 136767.601 3.566575-22037 3102 1200
 136768.239 3.845551-2 136768.876 4.147336-2 136769.514 4.474304-22037 3102 1201
 136770.151 4.827434-2 136770.789 5.208811-2 136771.426 5.618946-22037 3102 1202
 136772.064 6.059904-2 136772.700 6.531600-2 136773.351 7.048375-22037 3102 1203
 136774.001 7.599956-2 136774.651 8.188622-2 136775.301 8.813854-22037 3102 1204
 136775.951 9.478537-2 136776.926 1.054748-1 136777.900 1.170223-12037 3102 1205
 136778.801 1.284835-1 136779.701 1.406477-1 136780.901 1.579382-12037 3102 1206
 136782.101 1.763425-1 136783.601 2.006836-1 136785.851 2.391121-12037 3102 1207
 136789.000 2.935241-1 136790.726 3.216712-1 136792.250 3.444096-12037 3102 1208
 136793.601 3.622354-1 136794.800 3.758299-1 136796.100 3.878167-12037 3102 1209
 136797.200 3.954880-1 136798.300 4.007296-1 136799.500 4.035537-12037 3102 1210
 136800.000 4.038213-1 136801.200 4.022729-1 136802.000 3.995388-12037 3102 1211
 136803.100 3.936173-1 136804.300 3.844349-1 136805.600 3.715287-12037 3102 1212
 136806.876 3.562018-1 136808.400 3.349726-1 136810.101 3.084190-12037 3102 1213
 136812.288 2.714603-1 136815.876 2.094472-1 136817.189 1.876968-12037 3102 1214
 136818.500 1.669876-1 136819.726 1.487563-1 136820.645 1.358850-12037 3102 1215
 136821.564 1.237583-1 136822.483 1.123879-1 136823.400 1.018096-12037 3102 1216
 136824.176 9.346867-2 136824.951 8.568737-2 136825.726 7.844083-22037 3102 1217
 136826.500 7.172919-2 136827.276 6.551635-2 136828.051 5.980092-22037 3102 1218
 136828.826 5.454937-2 136829.407 5.090344-2 136830.126 4.672561-22037 3102 1219
 136830.651 4.389364-2 136831.176 4.123544-2 136831.701 3.875024-22037 3102 1220
 136832.226 3.641940-2 136832.751 3.424498-2 136833.276 3.221262-22037 3102 1221
 136833.801 3.032012-2 136834.326 2.855063-2 136834.851 2.690575-22037 3102 1222
 136835.376 2.537340-2 136835.901 2.395083-2 136836.426 2.262527-22037 3102 1223
 136836.951 2.139604-2 136837.476 2.025330-2 136838.000 1.919432-22037 3102 1224
 136838.695 1.790669-2 136839.388 1.674188-2 136840.083 1.568591-22037 3102 1225
 136840.776 1.473051-2 136841.470 1.386298-2 136842.164 1.307736-22037 3102 1226
 136842.858 1.236379-2 136843.551 1.171639-2 136844.245 1.112611-22037 3102 1227
 136844.939 1.058924-2 136845.633 1.009908-2 136846.673 9.441823-32037 3102 1228
 136847.713 8.865497-3 136848.754 8.357011-3 136849.538 8.012562-32037 3102 1229
 136850.414 7.662314-3 136851.726 7.195296-3 136853.039 6.786626-32037 3102 1230
 136854.351 6.426396-3 136855.664 6.106041-3 136856.976 5.819349-32037 3102 1231
 136857.851 5.644281-3 136859.601 5.326946-3 136861.351 5.046581-32037 3102 1232
 136863.100 4.797067-3 136865.323 4.516605-3 136867.545 4.270343-32037 3102 1233
 136869.767 4.052246-3 136871.989 3.857934-3 136874.211 3.683732-32037 3102 1234
 136876.433 3.526881-3 136879.395 3.340707-3 136882.358 3.176802-32037 3102 1235
 136885.320 3.031647-3 136889.063 2.870669-3 136892.458 2.742930-32037 3102 1236
 136895.851 2.629799-3 136900.376 2.497882-3 136904.900 2.384004-32037 3102 1237
 136909.426 2.284927-3 136913.951 2.198197-3 136918.476 2.121791-32037 3102 1238
 136925.092 2.025459-3 136931.363 1.947943-3 136937.636 1.881328-32037 3102 1239
 136943.908 1.823710-3 136952.270 1.758305-3 136960.633 1.703460-32037 3102 1240
 136968.995 1.657071-3 136981.538 1.599885-3 136989.900 1.568293-32037 3102 1241
 137002.413 1.528626-3 137014.926 1.496244-3 137033.695 1.458107-32037 3102 1242
 137052.464 1.429315-3 137077.488 1.401357-3 137102.513 1.381298-32037 3102 1243
 137140.051 1.361653-3 137177.588 1.350439-3 137221.400 1.344631-32037 3102 1244
 137252.700 1.342891-3 137321.551 1.347008-3 137390.400 1.355032-32037 3102 1245
 137490.500 1.373654-3 137590.600 1.397011-3 137840.900 1.467756-32037 3102 1246
 138091.200 1.550644-3 138341.451 1.644268-3 138591.800 1.748150-32037 3102 1247
 138842.051 1.863378-3 139092.400 1.991196-3 139342.650 2.133001-32037 3102 1248
 139593.000 2.290814-3 139843.250 2.466825-3 140043.451 2.622485-32037 3102 1249
 140243.750 2.793235-3 140443.951 2.980725-3 140644.150 3.187167-32037 3102 1250
 140844.451 3.415103-3 141044.650 3.667051-3 141244.851 3.946534-32037 3102 1251
 141395.100 4.176459-3 141545.250 4.425668-3 141695.400 4.696012-32037 3102 1252
 141845.601 4.989930-3 141995.800 5.309734-3 142145.951 5.658135-32037 3102 1253
 142296.100 6.037795-3 142446.301 6.452235-3 142596.500 6.904719-32037 3102 1254
 142746.650 7.398676-3 142896.800 7.938345-3 143047.000 8.527250-32037 3102 1255
 143197.200 9.169198-3 143347.351 9.867328-3 143497.500 1.062505-22037 3102 1256
 143677.701 1.161504-2 143837.900 1.256783-2 143998.101 1.358553-22037 3102 1257
 144238.400 1.521310-2 144678.900 1.830425-2 144859.150 1.947764-22037 3102 1258
 144979.250 2.018093-2 145099.400 2.079565-2 145219.551 2.130054-22037 3102 1259
 145339.701 2.167658-2 145459.851 2.190864-2 145580.000 2.198839-22037 3102 1260
 145700.101 2.190783-2 145820.250 2.167469-2 145940.400 2.129701-22037 3102 1261
 146060.551 2.078978-2 146180.701 2.017195-2 146360.900 1.908465-22037 3102 1262
 146601.200 1.744872-2 146961.601 1.489711-2 147201.900 1.328302-22037 3102 1263
 147362.100 1.228269-2 147522.300 1.135614-2 147657.451 1.064372-22037 3102 1264
 147752.551 1.018654-2 147827.626 9.855310-3 147902.700 9.581740-32037 3102 1265
 147959.389 9.439823-3 147993.400 9.409295-3 148022.808 9.450662-32037 3102 1266
 148040.451 9.523028-3 148058.095 9.658604-3 148069.858 9.801046-32037 3102 1267
 148081.620 1.000633-2 148090.338 1.021754-2 148098.851 1.049347-22037 3102 1268
 148104.526 1.072959-2 148110.201 1.102157-2 148115.876 1.138743-22037 3102 1269
 148120.133 1.172564-2 148124.389 1.213559-2 148128.645 1.263977-22037 3102 1270
 148131.482 1.304388-2 148134.226 1.350138-2 148136.876 1.402232-22037 3102 1271
 148138.864 1.447752-2 148140.851 1.500231-2 148142.839 1.561525-22037 3102 1272
 148144.826 1.634103-2 148146.151 1.690420-2 148147.476 1.754640-22037 3102 1273
 148148.801 1.828364-2 148150.126 1.913809-2 148151.120 1.987081-22037 3102 1274
 148152.114 2.069603-2 148153.108 2.162993-2 148154.100 2.268831-22037 3102 1275
 148154.951 2.371158-2 148155.801 2.485567-2 148156.651 2.613898-22037 3102 1276
 148157.501 2.757756-2 148158.351 2.919582-2 148159.201 3.101226-22037 3102 1277
 148160.051 3.305498-2 148160.900 3.534752-2 148161.539 3.725630-22037 3102 1278
 148162.177 3.933303-2 148162.815 4.159762-2 148163.451 4.406087-22037 3102 1279
 148164.089 4.674428-2 148164.726 4.965966-2 148165.364 5.282841-22037 3102 1280
 148166.001 5.625718-2 148166.639 5.998237-2 148167.276 6.400283-22037 3102 1281
 148167.938 6.852776-2 148168.651 7.380656-2 148169.364 7.954493-22037 3102 1282
 148170.076 8.575632-2 148170.789 9.247494-2 148171.500 9.970550-22037 3102 1283
 148172.214 1.075113-1 148172.926 1.158704-1 148173.639 1.248214-12037 3102 1284
 148174.351 1.343647-1 148175.300 1.480439-1 148176.063 1.598481-12037 3102 1285
 148176.826 1.723533-1 148177.970 1.924560-1 148179.114 2.141004-12037 3102 1286
 148180.258 2.372218-1 148181.400 2.616516-1 148182.789 2.928929-12037 3102 1287
 148185.100 3.475645-1 148188.500 4.292330-1 148190.376 4.717552-12037 3102 1288
 148191.951 5.043387-1 148193.326 5.295654-1 148194.600 5.496381-12037 3102 1289
 148195.900 5.663389-1 148197.200 5.788066-1 148198.300 5.858089-12037 3102 1290
 148199.500 5.895750-1 148200.000 5.899295-1 148201.200 5.878541-12037 3102 1291
 148202.100 5.836122-1 148203.300 5.744771-1 148204.500 5.615557-12037 3102 1292
 148205.800 5.436130-1 148207.151 5.210964-1 148208.701 4.911572-12037 3102 1293
 148210.476 4.526996-1 148212.500 4.053467-1 148216.251 3.151109-12037 3102 1294
 148217.900 2.770037-1 148219.276 2.468392-1 148220.438 2.227846-12037 3102 1295
 148221.451 2.030252-1 148222.464 1.844413-1 148223.476 1.671070-12037 3102 1296
 148224.489 1.510252-1 148225.500 1.362250-1 148226.364 1.245636-12037 3102 1297
 148227.226 1.138053-1 148228.089 1.038978-1 148228.951 9.482050-22037 3102 1298
 148229.814 8.651996-2 148230.676 7.896624-2 148231.251 7.432265-22037 3102 1299
 148231.826 6.997271-2 148232.401 6.591380-2 148232.976 6.211654-22037 3102 1300
 148233.551 5.858229-2 148234.126 5.528795-2 148234.700 5.222845-22037 3102 1301
 148235.495 4.834663-2 148236.288 4.484900-2 148237.083 4.169635-22037 3102 1302
 148237.876 3.886369-2 148238.670 3.631413-2 148239.464 3.402786-22037 3102 1303
 148240.258 3.197494-2 148241.051 3.013558-2 148241.845 2.848224-22037 3102 1304
 148242.639 2.700074-2 148243.433 2.566997-2 148244.226 2.447585-22037 3102 1305
 148245.020 2.340015-2 148245.813 2.243258-2 148247.004 2.115460-22037 3102 1306
 148248.123 2.011684-2 148249.206 1.923835-2 148250.288 1.846618-22037 3102 1307
 148251.733 1.757192-2 148253.176 1.680600-2 148254.620 1.614270-22037 3102 1308
 148256.064 1.556378-2 148258.229 1.482019-2 148260.395 1.419389-22037 3102 1309
 148262.561 1.365770-2 148264.726 1.319295-2 148267.613 1.266008-22037 3102 1310
 148270.500 1.220595-2 148274.054 1.173075-2 148277.608 1.132850-22037 3102 1311
 148282.345 1.087947-2 148287.083 1.050741-2 148291.820 1.019450-22037 3102 1312
 148298.926 9.809030-3 148306.032 9.498498-3 148315.176 9.178102-32037 3102 1313
 148325.339 8.896547-3 148335.500 8.670494-3 148349.051 8.429187-32037 3102 1314
 148362.600 8.235842-3 148378.858 8.047193-3 148405.951 7.800449-32037 3102 1315
 148438.463 7.570852-3 148476.401 7.355836-3 148530.601 7.102265-32037 3102 1316
 148589.476 6.867316-3 148684.800 6.536265-3 148787.701 6.219206-32037 3102 1317
 148878.426 5.962195-3 149047.700 5.528780-3 149198.100 5.183091-32037 3102 1318
 149348.600 4.869127-3 149506.400 4.571149-3 149664.200 4.299577-32037 3102 1319
 149769.400 4.133613-3 149927.200 3.905418-3 150085.000 3.701592-32037 3102 1320
 150242.801 3.522942-3 150348.000 3.419379-3 150453.201 3.330543-32037 3102 1321
 150558.400 3.260017-3 150637.301 3.223594-3 150716.200 3.206696-32037 3102 1322
 150729.400 3.206309-3 150788.551 3.216258-3 150832.913 3.238881-32037 3102 1323
 150874.001 3.275648-3 150913.451 3.330132-3 150952.900 3.410137-32037 3102 1324
 150979.201 3.481790-3 151005.500 3.573263-3 151025.226 3.658785-32037 3102 1325
 151044.951 3.762049-3 151064.263 3.884449-3 151082.751 4.026269-32037 3102 1326
 151101.239 4.198571-3 151113.564 4.334433-3 151125.889 4.490405-32037 3102 1327
 151138.214 4.670030-3 151150.538 4.878305-3 151160.732 5.077049-32037 3102 1328
 151172.826 5.350731-3 151180.889 5.560235-3 151188.951 5.795215-32037 3102 1329
 151197.014 6.059919-3 151205.076 6.359321-3 151213.138 6.699646-32037 3102 1330
 151221.200 7.088506-3 151227.113 7.410090-3 151233.026 7.767454-32037 3102 1331
 151238.939 8.166199-3 151244.851 8.612839-3 151250.764 9.115477-32037 3102 1332
 151256.676 9.683476-3 151261.111 1.015949-2 151265.545 1.068466-22037 3102 1333
 151270.307 1.131189-2 151273.920 1.183762-2 151277.533 1.241238-22037 3102 1334
 151281.145 1.304253-2 151284.758 1.373555-2 151288.370 1.450012-22037 3102 1335
 151291.983 1.534639-2 151295.595 1.628651-2 151298.882 1.723598-22037 3102 1336
 151301.845 1.817941-2 151304.808 1.921757-2 151307.770 2.036372-22037 3102 1337
 151310.733 2.163374-2 151313.695 2.304637-2 151316.658 2.462396-22037 3102 1338
 151318.880 2.593176-2 151321.100 2.736025-2 151323.238 2.886561-22037 3102 1339
 151325.376 3.051415-2 151327.514 3.232636-2 151329.650 3.432367-22037 3102 1340
 151331.789 3.653512-2 151333.926 3.899030-2 151336.063 4.172883-22037 3102 1341
 151337.667 4.399526-2 151339.020 4.606797-2 151340.658 4.879574-22037 3102 1342
 151342.295 5.179167-2 151343.933 5.509072-2 151345.570 5.873375-22037 3102 1343
 151347.208 6.276671-2 151348.845 6.724074-2 151350.482 7.221457-22037 3102 1344
 151351.963 7.720112-2 151353.289 8.210031-2 151354.614 8.745537-22037 3102 1345
 151355.939 9.331134-2 151357.264 9.971796-2 151358.589 1.067259-12037 3102 1346
 151359.914 1.143855-1 151361.238 1.227496-1 151362.476 1.312484-12037 3102 1347
 151363.626 1.397800-1 151364.776 1.489509-1 151365.926 1.587902-12037 3102 1348
 151367.076 1.693272-1 151368.226 1.805833-1 151369.951 1.988371-12037 3102 1349
 151371.100 2.119272-1 151372.726 2.317009-1 151374.351 2.528815-12037 3102 1350
 151375.976 2.753882-1 151378.226 3.084294-1 151381.351 3.568533-12037 3102 1351
 151385.900 4.280415-1 151388.201 4.617211-1 151389.926 4.848394-12037 3102 1352
 151391.501 5.037863-1 151393.001 5.195254-1 151394.500 5.326614-12037 3102 1353
 151395.801 5.417423-1 151397.100 5.485064-1 151398.400 5.528496-12037 3102 1354
 151400.000 5.547572-1 151401.601 5.528321-1 151402.900 5.484793-12037 3102 1355
 151404.201 5.416976-1 151405.500 5.326119-1 151407.201 5.174918-12037 3102 1356
 151408.900 4.991115-1 151411.001 4.726058-1 151413.101 4.429027-12037 3102 1357
 151415.976 3.989484-1 151421.226 3.166534-1 151423.701 2.799178-12037 3102 1358
 151425.351 2.568266-1 151427.000 2.350840-1 151428.595 2.154323-12037 3102 1359
 151430.189 1.972078-1 151431.783 1.804032-1 151433.376 1.650128-12037 3102 1360
 151434.970 1.509778-1 151436.157 1.413701-1 151437.470 1.315489-12037 3102 1361
 151438.783 1.225245-1 151440.095 1.142459-1 151441.408 1.066590-12037 3102 1362
 151442.720 9.971212-2 151444.033 9.335637-2 151445.345 8.754227-22037 3102 1363
 151446.745 8.188196-2 151448.233 7.642260-2 151449.720 7.147904-22037 3102 1364
 151451.208 6.699677-2 151452.695 6.292543-2 151454.183 5.922089-22037 3102 1365
 151455.670 5.584446-2 151457.157 5.276073-2 151458.882 4.950867-22037 3102 1366
 151460.845 4.618113-2 151462.808 4.319941-2 151464.770 4.051760-22037 3102 1367
 151466.733 3.809633-2 151468.695 3.590272-2 151470.658 3.390914-22037 3102 1368
 151472.620 3.209165-2 151474.920 3.015769-2 151477.558 2.816680-22037 3102 1369
 151480.195 2.638549-2 151482.833 2.478483-2 151485.470 2.334058-22037 3102 1370
 151488.108 2.203270-2 151490.745 2.084447-2 151493.382 1.976154-22037 3102 1371
 151496.345 1.865535-2 151499.633 1.754730-2 151502.920 1.654893-22037 3102 1372
 151506.208 1.564605-2 151509.495 1.482662-2 151512.783 1.408053-22037 3102 1373
 151516.070 1.339924-2 151519.357 1.277537-2 151523.301 1.209370-22037 3102 1374
 151527.901 1.137897-2 151532.501 1.073917-2 151537.101 1.016400-22037 3102 1375
 151541.701 9.644865-3 151546.301 9.174626-3 151550.901 8.747316-32037 3102 1376
 151555.501 8.357842-3 151561.088 7.929352-3 151567.664 7.479452-32037 3102 1377
 151574.239 7.079911-3 151580.814 6.723427-3 151587.389 6.403942-32037 3102 1378
 151593.964 6.116429-3 151600.539 5.856720-3 151610.400 5.511775-32037 3102 1379
 151619.026 5.247171-3 151627.651 5.011758-3 151633.401 4.868965-32037 3102 1380
 151644.901 4.612744-3 151656.400 4.389743-3 151667.901 4.193789-32037 3102 1381
 151679.401 4.020422-3 151690.901 3.866275-3 151702.400 3.728728-32037 3102 1382
 151715.551 3.588839-3 151735.276 3.407656-3 151755.000 3.254165-32037 3102 1383
 151774.726 3.122732-3 151794.451 3.008791-3 151815.001 2.905604-32037 3102 1384
 151837.201 2.808809-3 151866.801 2.697176-3 151896.401 2.602100-32037 3102 1385
 151926.000 2.520096-3 151965.451 2.426590-3 152004.901 2.347006-32037 3102 1386
 152057.501 2.257104-3 152110.101 2.181014-3 152189.000 2.085350-32037 3102 1387
 152267.901 2.005361-3 152346.800 1.936566-3 152452.000 1.856776-32037 3102 1388
 152557.200 1.787091-3 152662.400 1.724821-3 152793.900 1.654896-32037 3102 1389
 152951.700 1.579682-3 153135.800 1.501214-3 153346.200 1.420965-32037 3102 1390
 153601.600 1.334339-3 153826.900 1.266210-3 154052.200 1.204098-32037 3102 1391
 154277.601 1.148530-3 154502.900 1.098763-3 154653.100 1.070191-32037 3102 1392
 154802.476 1.047772-3 154907.750 1.039352-3 154923.400 1.039120-32037 3102 1393
 154985.526 1.042942-3 155022.800 1.050831-3 155047.651 1.060004-32037 3102 1394
 155072.500 1.074087-3 155091.139 1.089335-3 155109.776 1.110436-32037 3102 1395
 155122.200 1.129022-3 155135.276 1.154015-3 155148.351 1.186672-32037 3102 1396
 155158.158 1.218045-3 155167.963 1.257410-3 155177.276 1.304743-32037 3102 1397
 155182.826 1.338984-3 155188.376 1.378944-3 155193.926 1.425956-32037 3102 1398
 155199.476 1.481785-3 155203.639 1.530845-3 155207.801 1.587472-32037 3102 1399
 155211.964 1.653403-3 155216.126 1.730795-3 155218.900 1.790175-32037 3102 1400
 155222.013 1.865831-3 155225.126 1.952950-3 155228.239 2.054232-32037 3102 1401
 155230.573 2.141605-3 155232.908 2.240966-3 155235.242 2.355063-32037 3102 1402
 155237.576 2.487473-3 155239.133 2.588509-3 155240.688 2.701941-32037 3102 1403
 155242.245 2.830483-3 155243.800 2.977361-3 155245.030 3.109323-32037 3102 1404
 155246.258 3.257978-3 155247.486 3.426823-3 155248.714 3.619713-32037 3102 1405
 155249.942 3.841789-3 155250.761 4.008847-3 155251.580 4.193580-32037 3102 1406
 155252.399 4.398201-3 155253.217 4.625323-3 155254.036 4.878007-32037 3102 1407
 155254.855 5.159586-3 155255.673 5.473631-3 155256.492 5.824233-32037 3102 1408
 155257.235 6.178506-3 155257.905 6.529448-3 155258.573 6.913797-32037 3102 1409
 155259.242 7.334703-3 155259.911 7.795806-3 155260.580 8.300775-32037 3102 1410
 155261.249 8.853193-3 155261.917 9.457110-3 155262.586 1.011737-22037 3102 1411
 155263.255 1.083860-2 155263.924 1.162496-2 155264.592 1.248131-22037 3102 1412
 155265.261 1.341321-2 155265.930 1.442595-2 155266.598 1.552427-22037 3102 1413
 155267.267 1.671349-2 155268.057 1.824563-2 155268.742 1.968959-22037 3102 1414
 155269.426 2.124411-2 155270.111 2.292253-2 155270.795 2.472201-22037 3102 1415
 155271.479 2.665275-2 155272.164 2.871678-2 155272.848 3.092175-22037 3102 1416
 155273.761 3.408141-2 155274.445 3.661847-2 155275.226 3.969799-22037 3102 1417
 155276.201 4.381226-2 155277.176 4.823051-2 155278.151 5.294016-22037 3102 1418
 155279.126 5.793560-2 155280.100 6.319037-2 155281.676 7.220299-22037 3102 1419
 155283.251 8.171842-2 155288.076 1.120984-1 155290.100 1.242057-12037 3102 1420
 155291.676 1.328198-1 155293.101 1.397466-1 155294.000 1.436088-12037 3102 1421
 155295.400 1.487138-1 155296.600 1.521181-1 155297.700 1.543857-12037 3102 1422
 155298.951 1.559198-1 155300.000 1.563249-1 155301.200 1.557923-12037 3102 1423
 155302.000 1.548517-1 155303.100 1.528122-1 155304.300 1.496425-12037 3102 1424
 155305.600 1.451722-1 155306.876 1.398394-1 155308.351 1.326672-12037 3102 1425
 155310.001 1.236089-1 155311.800 1.128466-1 155316.914 8.068810-22037 3102 1426
 155318.595 7.059736-2 155320.064 6.227408-2 155321.239 5.601931-22037 3102 1427
 155322.413 5.016381-2 155323.395 4.559523-2 155324.183 4.214601-22037 3102 1428
 155324.970 3.889475-2 155325.758 3.584116-2 155326.545 3.298196-22037 3102 1429
 155327.333 3.031394-2 155328.120 2.783369-2 155328.907 2.553530-22037 3102 1430
 155329.570 2.373616-2 155330.376 2.170721-2 155331.183 1.984445-22037 3102 1431
 155331.989 1.814231-2 155332.796 1.658897-2 155333.601 1.517823-22037 3102 1432
 155334.408 1.389390-2 155335.214 1.273301-2 155336.020 1.168335-22037 3102 1433
 155336.826 1.073734-2 155337.632 9.884578-3 155338.310 9.234269-32037 3102 1434
 155338.925 8.693329-3 155339.538 8.196351-3 155340.153 7.737492-32037 3102 1435
 155340.767 7.316330-3 155341.176 7.054770-3 155341.995 6.572127-32037 3102 1436
 155342.814 6.141005-3 155343.633 5.755116-3 155344.451 5.410172-32037 3102 1437
 155345.270 5.100611-3 155346.089 4.823405-3 155346.908 4.574368-32037 3102 1438
 155347.726 4.350670-3 155348.545 4.148797-3 155349.363 3.966727-32037 3102 1439
 155350.182 3.801817-3 155351.000 3.652336-3 155352.226 3.452935-32037 3102 1440
 155353.451 3.278809-3 155354.676 3.125543-3 155355.901 2.989886-32037 3102 1441
 155357.126 2.868797-3 155358.964 2.709924-3 155360.801 2.573168-32037 3102 1442
 155362.639 2.453788-3 155364.476 2.348725-3 155365.701 2.285336-32037 3102 1443
 155368.151 2.171770-3 155370.600 2.072993-3 155373.789 1.962063-32037 3102 1444
 155376.976 1.867218-3 155380.164 1.785234-3 155383.351 1.713780-32037 3102 1445
 155386.539 1.651011-3 155389.726 1.595533-3 155393.976 1.530968-32037 3102 1446
 155398.226 1.475272-3 155402.476 1.426836-3 155407.870 1.373878-32037 3102 1447
 155414.408 1.319906-3 155420.945 1.274752-3 155427.483 1.236536-32037 3102 1448
 155437.289 1.189260-3 155447.095 1.151153-3 155456.900 1.119925-32037 3102 1449
 155467.363 1.092369-3 155483.058 1.059275-3 155498.750 1.033270-32037 3102 1450
 155519.676 1.006209-3 155540.600 9.851752-4 155566.751 9.646471-42037 3102 1451
 155605.976 9.414599-4 155645.200 9.239353-4 155697.776 9.056845-42037 3102 1452
 155785.400 8.827677-4 155901.551 8.596462-4 156017.700 8.398254-42037 3102 1453
 156249.951 8.072827-4 156482.300 7.793323-4 156637.100 7.628853-42037 3102 1454
 156946.900 7.342708-4 157180.051 7.166909-4 157413.200 7.025995-42037 3102 1455
 157568.700 6.959159-4 157763.000 6.917408-4 157801.900 6.916127-42037 3102 1456
 157918.451 6.938641-4 157996.176 6.980927-4 158035.051 7.012130-42037 3102 1457
 158112.800 7.113085-4 158162.150 7.214221-4 158211.500 7.360264-42037 3102 1458
 158252.864 7.539459-4 158280.439 7.700829-4 158308.013 7.911483-42037 3102 1459
 158328.032 8.107035-4 158346.726 8.333591-4 158365.420 8.617819-42037 3102 1460
 158377.883 8.849335-4 158390.345 9.124100-4 158402.808 9.453364-42037 3102 1461
 158412.155 9.744918-4 158421.500 1.008394-3 158431.345 1.050521-32037 3102 1462
 158441.189 1.100982-3 158447.750 1.140385-3 158454.314 1.185432-32037 3102 1463
 158460.876 1.237248-3 158467.438 1.297296-3 158472.360 1.348836-32037 3102 1464
 158478.263 1.419530-3 158482.526 1.477726-3 158486.789 1.543051-32037 3102 1465
 158491.051 1.616716-3 158495.314 1.700284-3 158499.576 1.795606-32037 3102 1466
 158502.774 1.876265-3 158505.970 1.966079-3 158509.576 2.080344-32037 3102 1467
 158512.526 2.185811-3 158515.476 2.303987-3 158518.426 2.437111-32037 3102 1468
 158521.376 2.587994-3 158523.589 2.714936-3 158525.801 2.855615-32037 3102 1469
 158528.014 3.012552-3 158530.226 3.188399-3 158531.700 3.317927-32037 3102 1470
 158533.676 3.509739-3 158535.651 3.726082-3 158537.133 3.907818-32037 3102 1471
 158538.614 4.109123-3 158540.095 4.333908-3 158541.576 4.586646-32037 3102 1472
 158543.058 4.873398-3 158544.045 5.086922-3 158545.033 5.321502-32037 3102 1473
 158546.020 5.580218-3 158547.007 5.866777-3 158547.870 6.143430-32037 3102 1474
 158548.976 6.539757-3 158550.083 6.990865-3 158550.820 7.326540-32037 3102 1475
 158551.558 7.694216-3 158552.296 8.097444-3 158553.033 8.540354-32037 3102 1476
 158553.770 9.027909-3 158554.508 9.565280-3 158555.245 1.015770-22037 3102 1477
 158555.983 1.081131-2 158556.720 1.153321-2 158557.458 1.233083-22037 3102 1478
 158558.195 1.321180-2 158558.932 1.418474-2 158559.557 1.508899-22037 3102 1479
 158560.326 1.631033-2 158561.095 1.766494-2 158561.864 1.916311-22037 3102 1480
 158562.633 2.082062-2 158563.400 2.264748-2 158564.171 2.466852-22037 3102 1481
 158564.939 2.688946-2 158565.708 2.933148-2 158566.476 3.200741-22037 3102 1482
 158567.245 3.493926-2 158567.926 3.776228-2 158568.564 4.060967-22037 3102 1483
 158569.201 4.365546-2 158569.839 4.692510-2 158570.476 5.041023-22037 3102 1484
 158571.326 5.542186-2 158572.176 6.086372-2 158573.026 6.674882-22037 3102 1485
 158573.876 7.308928-2 158574.626 7.907337-2 158575.601 8.739963-22037 3102 1486
 158576.576 9.635322-2 158577.551 1.059122-1 158578.526 1.160691-12037 3102 1487
 158579.500 1.267744-1 158580.551 1.389126-1 158582.126 1.581038-12037 3102 1488
 158584.101 1.834232-1 158588.201 2.371373-1 158590.026 2.597193-12037 3102 1489
 158591.600 2.775858-1 158592.951 2.912811-1 158594.150 3.018974-12037 3102 1490
 158595.551 3.121565-1 158596.801 3.191612-1 158597.900 3.235120-12037 3102 1491
 158599.100 3.262277-1 158600.000 3.268412-1 158601.200 3.257460-12037 3102 1492
 158602.000 3.238112-1 158603.100 3.196146-1 158604.300 3.130898-12037 3102 1493
 158605.600 3.038824-1 158606.876 2.928903-1 158608.400 2.775561-12037 3102 1494
 158610.076 2.584836-1 158611.800 2.371054-1 158617.014 1.689775-12037 3102 1495
 158618.695 1.479545-1 158620.164 1.305858-1 158621.339 1.175129-12037 3102 1496
 158622.513 1.052555-1 158623.495 9.567716-2 158624.283 8.843588-22037 3102 1497
 158625.070 8.160160-2 158625.858 7.517446-2 158626.645 6.914832-22037 3102 1498
 158627.433 6.351726-2 158628.220 5.827501-2 158629.007 5.340999-22037 3102 1499
 158629.629 4.982308-2 158630.313 4.612915-2 158630.998 4.268636-22037 3102 1500
 158631.683 3.949127-2 158632.367 3.652706-2 158633.051 3.378960-22037 3102 1501
 158633.736 3.125170-2 158634.420 2.891649-2 158635.105 2.676524-22037 3102 1502
 158635.788 2.478967-2 158636.473 2.297405-2 158637.020 2.163250-22037 3102 1503
 158637.658 2.018207-2 158638.295 1.884741-2 158638.933 1.762027-22037 3102 1504
 158639.570 1.649215-2 158640.208 1.545572-2 158640.845 1.450454-22037 3102 1505
 158641.483 1.363192-2 158642.120 1.283086-2 158642.758 1.209561-22037 3102 1506
 158643.396 1.142135-2 158644.033 1.080291-2 158644.670 1.023518-22037 3102 1507
 158645.308 9.713781-3 158645.945 9.234939-3 158646.582 8.794862-32037 3102 1508
 158647.267 8.361146-3 158647.998 7.937871-3 158648.730 7.552267-32037 3102 1509
 158649.461 7.200398-3 158650.558 6.728022-3 158651.655 6.312970-32037 3102 1510
 158652.750 5.947131-3 158653.849 5.621875-3 158654.945 5.332235-32037 3102 1511
 158656.042 5.072477-3 158657.138 4.838528-3 158658.600 4.560296-32037 3102 1512
 158659.770 4.361141-3 158661.524 4.095038-3 158663.276 3.861461-32037 3102 1513
 158665.030 3.654141-3 158666.783 3.469024-3 158668.536 3.302405-32037 3102 1514
 158670.289 3.151647-3 158672.626 2.971539-3 158674.963 2.811616-32037 3102 1515
 158677.300 2.668810-3 158680.213 2.510883-3 158683.126 2.371809-32037 3102 1516
 158686.039 2.248516-3 158688.951 2.138674-3 158691.864 2.040268-32037 3102 1517
 158694.776 1.951789-3 158697.688 1.871875-3 158702.057 1.765738-32037 3102 1518
 158706.426 1.673463-3 158710.795 1.592670-3 158715.164 1.521514-32037 3102 1519
 158719.533 1.458478-3 158723.900 1.402377-3 158729.726 1.336632-32037 3102 1520
 158735.551 1.279602-3 158741.376 1.229816-3 158747.200 1.186125-32037 3102 1521
 158755.095 1.134954-3 158762.989 1.091363-3 158768.251 1.065771-32037 3102 1522
 158778.776 1.021380-3 158789.301 9.844125-4 158799.826 9.533720-42037 3102 1523
 158810.351 9.271265-4 158826.138 8.948738-4 158838.451 8.743609-42037 3102 1524
 158859.601 8.460010-4 158880.751 8.242289-4 158901.901 8.073770-42037 3102 1525
 158930.101 7.905328-4 158958.301 7.785967-4 159000.601 7.662891-42037 3102 1526
 159042.901 7.590720-4 159090.851 7.551847-4 159124.700 7.545011-42037 3102 1527
 159184.851 7.566980-4 159245.000 7.621093-4 159320.201 7.730832-42037 3102 1528
 159395.400 7.879540-4 159485.626 8.113865-4 159545.776 8.304616-42037 3102 1529
 159605.926 8.526578-4 159666.076 8.783471-4 159726.226 9.080071-42037 3102 1530
 159786.376 9.422106-4 159846.526 9.817660-4 159876.600 1.003590-32037 3102 1531
 159951.789 1.066126-3 159996.900 1.109971-3 160042.014 1.159298-32037 3102 1532
 160087.126 1.214994-3 160132.238 1.278203-3 160177.351 1.349986-32037 3102 1533
 160222.463 1.432134-3 160267.576 1.526481-3 160297.650 1.597271-32037 3102 1534
 160327.726 1.675462-3 160357.800 1.762160-3 160384.126 1.845754-32037 3102 1535
 160410.451 1.937554-3 160436.776 2.038554-3 160463.100 2.149657-32037 3102 1536
 160489.426 2.273402-3 160515.750 2.411143-3 160542.076 2.564854-32037 3102 1537
 160568.400 2.736894-3 160588.145 2.879711-3 160607.889 3.036107-32037 3102 1538
 160627.633 3.207808-3 160647.376 3.396450-3 160667.120 3.604494-32037 3102 1539
 160685.913 3.823197-3 160704.233 4.058269-3 160722.551 4.317383-32037 3102 1540
 160740.870 4.604039-3 160759.188 4.922395-3 160777.513 5.277608-32037 3102 1541
 160795.851 5.674552-3 160814.188 6.119607-3 160827.826 6.486446-32037 3102 1542
 160842.876 6.931485-3 160855.101 7.327657-3 160869.201 7.827893-32037 3102 1543
 160883.301 8.380301-3 160897.376 8.990538-3 160911.439 9.666316-32037 3102 1544
 160925.500 1.041640-2 160939.601 1.125315-2 160953.701 1.218550-22037 3102 1545
 160963.100 1.286614-2 160972.501 1.359867-2 160981.900 1.438698-22037 3102 1546
 160991.301 1.523542-2 161000.700 1.614812-2 161010.101 1.712960-22037 3102 1547
 161019.500 1.818374-2 161028.901 1.931454-2 161038.300 2.052507-22037 3102 1548
 161051.651 2.238509-2 161065.000 2.440828-2 161078.351 2.658683-22037 3102 1549
 161097.338 2.990630-2 161131.163 3.602823-2 161144.326 3.823314-22037 3102 1550
 161155.614 3.991376-2 161166.900 4.131831-2 161174.426 4.206423-22037 3102 1551
 161181.951 4.263500-2 161189.476 4.301594-2 161198.500 4.320844-22037 3102 1552
 161200.000 4.321188-2 161206.763 4.312594-2 161214.289 4.283764-22037 3102 1553
 161221.814 4.235403-2 161229.338 4.168780-2 161239.876 4.048106-22037 3102 1554
 161246.650 3.956057-2 161260.200 3.745680-2 161275.989 3.471087-22037 3102 1555
 161310.188 2.851206-2 161325.964 2.581352-2 161337.795 2.391898-22037 3102 1556
 161349.626 2.214903-2 161361.457 2.050748-2 161373.863 1.892529-22037 3102 1557
 161386.558 1.744846-2 161399.250 1.610598-2 161411.945 1.488868-22037 3102 1558
 161424.638 1.378643-2 161437.801 1.275267-2 161447.201 1.207680-22037 3102 1559
 161461.301 1.115131-2 161475.401 1.032020-2 161489.501 9.573420-32037 3102 1560
 161503.601 8.901362-3 161514.407 8.431305-3 161526.620 7.942227-32037 3102 1561
 161538.833 7.493339-3 161551.045 7.080572-3 161563.258 6.700502-32037 3102 1562
 161575.470 6.350027-3 161587.683 6.026135-3 161606.000 5.585133-32037 3102 1563
 161619.163 5.298198-3 161632.326 5.033403-3 161652.070 4.672917-32037 3102 1564
 161671.814 4.350829-3 161691.558 4.062492-3 161711.300 3.803335-32037 3102 1565
 161731.045 3.569639-3 161750.789 3.358519-3 161770.533 3.166998-32037 3102 1566
 161790.276 2.992599-3 161810.020 2.833601-3 161829.751 2.688425-32037 3102 1567
 161856.051 2.513426-3 161882.351 2.356853-3 161908.651 2.216369-32037 3102 1568
 161936.851 2.081302-3 161966.951 1.952973-3 161997.051 1.837631-32037 3102 1569
 162027.151 1.733949-3 162057.238 1.640402-3 162087.314 1.555825-32037 3102 1570
 162117.389 1.479194-3 162147.463 1.409443-3 162177.538 1.345683-32037 3102 1571
 162222.650 1.260016-3 162267.763 1.184669-3 162312.876 1.117849-32037 3102 1572
 162357.989 1.058500-3 162403.100 1.005480-3 162448.214 9.578885-42037 3102 1573
 162493.326 9.155454-4 162523.400 8.890027-4 162583.551 8.412675-42037 3102 1574
 162643.700 7.992381-4 162703.851 7.619941-4 162764.000 7.288023-42037 3102 1575
 162824.150 6.991659-4 162884.300 6.725526-4 162974.526 6.376278-42037 3102 1576
 163064.750 6.075000-4 163124.900 5.897713-4 163245.200 5.592919-42037 3102 1577
 163346.751 5.379656-4 163455.801 5.187770-4 163531.000 5.078465-42037 3102 1578
 163606.201 4.987375-4 163681.400 4.915486-4 163756.551 4.865080-42037 3102 1579
 163850.500 4.837873-4 163932.751 4.859267-4 163982.100 4.899985-42037 3102 1580
 164024.401 4.957544-4 164066.701 5.042531-4 164109.001 5.164034-42037 3102 1581
 164137.201 5.269592-4 164165.401 5.403876-4 164193.601 5.574589-42037 3102 1582
 164214.163 5.727636-4 164233.551 5.899584-4 164252.939 6.104600-42037 3102 1583
 164272.326 6.350060-4 164291.714 6.645925-4 164304.638 6.879170-42037 3102 1584
 164316.563 7.125501-4 164327.489 7.381820-4 164338.414 7.672491-42037 3102 1585
 164349.339 8.003673-4 164360.264 8.383167-4 164371.189 8.820688-42037 3102 1586
 164379.383 9.193978-4 164387.576 9.612781-4 164395.770 1.008484-32037 3102 1587
 164405.063 1.069627-3 164411.626 1.118499-3 164418.189 1.172887-32037 3102 1588
 164424.750 1.233668-3 164431.314 1.301956-3 164437.876 1.379054-32037 3102 1589
 164444.438 1.466568-3 164449.360 1.540184-3 164455.538 1.643927-32037 3102 1590
 164460.076 1.729428-3 164464.614 1.824088-3 164469.150 1.929236-32037 3102 1591
 164473.689 2.046555-3 164478.226 2.177950-3 164482.763 2.325850-32037 3102 1592
 164486.167 2.449336-3 164490.438 2.622090-3 164493.576 2.763459-32037 3102 1593
 164496.714 2.919004-3 164499.851 3.090652-3 164502.989 3.280909-32037 3102 1594
 164506.126 3.492493-3 164509.263 3.728939-3 164511.617 3.925054-32037 3102 1595
 164514.588 4.199338-3 164516.776 4.422955-3 164518.964 4.667777-32037 3102 1596
 164521.150 4.936541-3 164523.339 5.233003-3 164525.526 5.561047-32037 3102 1597
 164527.713 5.925985-3 164529.900 6.333833-3 164531.701 6.707552-32037 3102 1598
 164533.501 7.120933-3 164535.301 7.580929-3 164537.101 8.095321-32037 3102 1599
 164538.452 8.523573-3 164539.801 8.993034-3 164541.152 9.510530-32037 3102 1600
 164542.501 1.008302-2 164543.851 1.071998-2 164544.945 1.129023-22037 3102 1601
 164546.233 1.203352-2 164547.520 1.286629-2 164548.486 1.355859-22037 3102 1602
 164549.451 1.431548-2 164550.417 1.514821-2 164551.383 1.606251-22037 3102 1603
 164552.348 1.707011-2 164553.313 1.818100-2 164554.279 1.940935-22037 3102 1604
 164555.182 2.067576-2 164556.055 2.201920-2 164556.926 2.349002-22037 3102 1605
 164557.799 2.510700-2 164558.670 2.687792-2 164559.542 2.882159-22037 3102 1606
 164560.414 3.095175-2 164561.286 3.328788-2 164562.158 3.584335-22037 3102 1607
 164563.030 3.863934-2 164563.900 4.168786-2 164564.801 4.513366-22037 3102 1608
 164565.701 4.889162-2 164566.601 5.298857-2 164567.500 5.743771-22037 3102 1609
 164568.401 6.226986-2 164569.301 6.749138-2 164570.201 7.312725-22037 3102 1610
 164571.100 7.918215-2 164572.170 8.695823-2 164573.239 9.535443-22037 3102 1611
 164574.308 1.043907-1 164575.376 1.140545-1 164576.445 1.243467-12037 3102 1612
 164577.376 1.338012-1 164578.526 1.460714-1 164580.251 1.655654-12037 3102 1613
 164582.451 1.919321-1 164587.150 2.501480-1 164589.326 2.756515-12037 3102 1614
 164591.200 2.956144-1 164592.400 3.070447-1 164593.600 3.171812-12037 3102 1615
 164595.176 3.282584-1 164596.601 3.358306-1 164598.051 3.409480-12037 3102 1616
 164599.101 3.429437-1 164600.000 3.434847-1 164601.351 3.422609-12037 3102 1617
 164602.500 3.393128-1 164603.626 3.347804-1 164605.200 3.258480-12037 3102 1618
 164606.351 3.175506-1 164607.500 3.079160-1 164608.801 2.955867-12037 3102 1619
 164610.100 2.819825-1 164612.201 2.579258-1 164615.151 2.216942-12037 3102 1620
 164618.039 1.859366-1 164620.088 1.616243-1 164621.576 1.449423-12037 3102 1621
 164622.876 1.311883-1 164624.176 1.182851-1 164625.151 1.092065-12037 3102 1622
 164626.188 1.001149-1 164627.351 9.064281-2 164628.514 8.191550-22037 3102 1623
 164629.289 7.651066-2 164630.064 7.142600-2 164630.839 6.665571-22037 3102 1624
 164631.613 6.218993-2 164632.513 5.736758-2 164633.283 5.354395-22037 3102 1625
 164634.051 4.998978-2 164634.821 4.667703-2 164635.589 4.360751-22037 3102 1626
 164636.358 4.075954-2 164637.126 3.812366-2 164637.895 3.568325-22037 3102 1627
 164638.664 3.343040-2 164639.433 3.134932-2 164640.200 2.943278-22037 3102 1628
 164641.167 2.722815-2 164642.133 2.524113-2 164643.098 2.344711-22037 3102 1629
 164644.064 2.182910-2 164645.030 2.036706-2 164645.995 1.904667-22037 3102 1630
 164646.961 1.785195-2 164647.926 1.677190-2 164648.892 1.579070-22037 3102 1631
 164649.857 1.490094-2 164650.920 1.401352-2 164652.176 1.307393-22037 3102 1632
 164653.433 1.223685-2 164654.689 1.148904-2 164655.946 1.081760-22037 3102 1633
 164657.201 1.021310-2 164658.458 9.664935-3 164659.714 9.167415-32037 3102 1634
 164660.551 8.860506-3 164662.226 8.297923-3 164663.900 7.795660-32037 3102 1635
 164665.467 7.371855-3 164667.033 6.987009-3 164668.076 6.749469-32037 3102 1636
 164670.164 6.313836-3 164672.250 5.924556-3 164674.339 5.574408-32037 3102 1637
 164676.426 5.258276-3 164678.513 4.971414-3 164680.600 4.710295-32037 3102 1638
 164683.251 4.410643-3 164685.901 4.142137-3 164688.551 3.900309-32037 3102 1639
 164691.201 3.681734-3 164693.851 3.483266-3 164696.501 3.302585-32037 3102 1640
 164699.151 3.137474-3 164702.767 2.934170-3 164705.663 2.787268-32037 3102 1641
 164709.526 2.610488-3 164713.389 2.452585-3 164717.250 2.310974-32037 3102 1642
 164721.114 2.183389-3 164724.976 2.068083-3 164728.838 1.963473-32037 3102 1643
 164732.700 1.868296-3 164737.513 1.761162-3 164742.326 1.665137-32037 3102 1644
 164747.139 1.578693-3 164751.951 1.500608-3 164756.764 1.429794-32037 3102 1645
 164761.576 1.365399-3 164768.795 1.279177-3 164775.288 1.210744-32037 3102 1646
 164781.420 1.152888-3 164787.551 1.100722-3 164795.726 1.038725-32037 3102 1647
 164803.900 9.840917-4 164812.076 9.356752-4 164820.251 8.925792-42037 3102 1648
 164828.426 8.540455-4 164839.679 8.073419-4 164848.913 7.736834-42037 3102 1649
 164861.226 7.342869-4 164873.539 7.000766-4 164885.851 6.700842-42037 3102 1650
 164898.164 6.436386-4 164910.476 6.202460-4 164928.945 5.898814-42037 3102 1651
 164949.163 5.618508-4 164970.258 5.372410-4 164991.351 5.163689-42037 3102 1652
 165012.445 4.985582-4 165033.538 4.832355-4 165061.676 4.656493-42037 3102 1653
 165089.826 4.507863-4 165117.976 4.380914-4 165160.200 4.222491-42037 3102 1654
 165205.914 4.083394-4 165251.626 3.969456-4 165310.251 3.849933-42037 3102 1655
 165394.700 3.715410-4 165469.750 3.620521-4 165544.800 3.542609-42037 3102 1656
 165657.376 3.448378-4 165769.900 3.374599-4 165844.900 3.329511-42037 3102 1657
 165995.000 3.256936-4 166220.150 3.173129-4 166445.300 3.108092-42037 3102 1658
 166595.400 3.073850-4 166895.500 3.021569-4 167195.700 2.987550-42037 3102 1659
 167570.900 2.967960-4 167683.500 2.966321-4 168096.200 2.980662-42037 3102 1660
 168396.300 3.010128-4 168696.500 3.057278-4 168996.700 3.124223-42037 3102 1661
 169296.800 3.213731-4 169521.951 3.298701-4 169747.100 3.399516-42037 3102 1662
 169972.250 3.521581-4 170197.300 3.664826-4 170347.400 3.775644-42037 3102 1663
 170497.500 3.899928-4 170647.600 4.039373-4 170797.700 4.195992-42037 3102 1664
 170947.800 4.372142-4 171097.800 4.570607-4 171247.900 4.794438-42037 3102 1665
 171398.000 5.047868-4 171548.100 5.336002-4 171698.200 5.664357-42037 3102 1666
 171810.776 5.941956-4 171923.301 6.248249-4 172035.826 6.590400-42037 3102 1667
 172148.400 6.970171-4 172260.976 7.396900-4 172373.551 7.873616-42037 3102 1668
 172448.600 8.224692-4 172523.650 8.605634-4 172598.700 9.018923-42037 3102 1669
 172711.200 9.706776-4 172795.651 1.028597-3 172880.101 1.092703-32037 3102 1670
 172964.526 1.163641-3 173048.900 1.242443-3 173133.351 1.330428-32037 3102 1671
 173217.750 1.428730-3 173302.151 1.538969-3 173358.451 1.620041-32037 3102 1672
 173414.751 1.707777-3 173471.051 1.802910-3 173527.326 1.906224-32037 3102 1673
 173583.576 2.018429-3 173639.851 2.140597-3 173696.151 2.273842-32037 3102 1674
 173752.451 2.419073-3 173808.751 2.577707-3 173865.026 2.750813-32037 3102 1675
 173921.276 2.939846-3 173977.551 3.146570-3 174033.851 3.372270-32037 3102 1676
 174090.126 3.618538-3 174146.376 3.886462-3 174200.776 4.167486-32037 3102 1677
 174253.326 4.460351-3 174309.626 4.797416-3 174369.676 5.182132-32037 3102 1678
 174429.701 5.591447-3 174545.976 6.434553-3 174651.076 7.208122-32037 3102 1679
 174729.900 7.747153-3 174782.400 8.063571-3 174834.900 8.330227-32037 3102 1680
 174874.314 8.489780-3 174913.726 8.609017-3 174953.876 8.685604-32037 3102 1681
 174997.000 8.714733-3 175039.026 8.687908-3 175079.564 8.612344-32037 3102 1682
 175120.100 8.490472-3 175172.601 8.269757-3 175225.100 7.988939-32037 3102 1683
 175277.650 7.661163-3 175360.201 7.083644-3 175540.276 5.755468-32037 3102 1684
 175600.326 5.334856-3 175660.376 4.937684-3 175724.176 4.543823-32037 3102 1685
 175791.726 4.160775-3 175853.626 3.840137-3 175909.876 3.572618-32037 3102 1686
 175966.151 3.326892-3 176022.451 3.101860-3 176078.726 2.895571-32037 3102 1687
 176134.976 2.706785-3 176191.251 2.534094-3 176247.551 2.375753-32037 3102 1688
 176303.851 2.230577-3 176360.151 2.097493-3 176416.426 1.975438-32037 3102 1689
 176472.676 1.863145-3 176538.326 1.743471-3 176575.851 1.680197-32037 3102 1690
 176650.900 1.563108-3 176725.951 1.457550-3 176801.000 1.362181-32037 3102 1691
 176876.051 1.275888-3 176951.100 1.197700-3 177026.150 1.126543-32037 3102 1692
 177101.200 1.061753-3 177176.201 1.002546-3 177251.200 9.483419-42037 3102 1693
 177326.250 8.986263-4 177401.300 8.528770-4 177476.351 8.107680-42037 3102 1694
 177551.400 7.718640-4 177626.451 7.359174-4 177739.026 6.869360-42037 3102 1695
 177851.600 6.429067-4 177964.176 6.035164-4 178076.701 5.678495-42037 3102 1696
 178189.226 5.357204-4 178301.800 5.064264-4 178414.376 4.798762-42037 3102 1697
 178526.951 4.555421-4 178677.051 4.262997-4 178752.100 4.129233-42037 3102 1698
 178902.200 3.882503-4 179052.200 3.660587-4 179202.300 3.460425-42037 3102 1699
 179352.400 3.279235-4 179502.500 3.114669-4 179652.600 2.964713-42037 3102 1700
 179802.700 2.827644-4 179952.700 2.702002-4 180102.800 2.586507-42037 3102 1701
 180252.900 2.480070-4 180478.051 2.335934-4 180703.200 2.206145-42037 3102 1702
 180928.250 2.090704-4 181153.400 1.985849-4 181303.500 1.921915-42037 3102 1703
 181603.700 1.805659-4 181903.800 1.702789-4 182204.000 1.611275-42037 3102 1704
 182504.100 1.529399-4 182804.300 1.455757-4 183104.500 1.389198-42037 3102 1705
 183404.600 1.328764-4 183704.800 1.273670-4 184005.000 1.223249-42037 3102 1706
 184455.201 1.155505-4 184755.400 1.114096-4 185205.600 1.058124-42037 3102 1707
 185693.400 1.004321-4 186068.601 9.665228-5 186631.400 9.150105-52037 3102 1708
 187194.201 8.696064-5 187757.100 8.284369-5 188507.500 7.799193-52037 3102 1709
 189257.900 7.371545-5 190008.300 6.991564-5 190758.700 6.651446-52037 3102 1710
 191509.100 6.345078-5 192259.500 6.067537-5 193010.000 5.814892-52037 3102 1711
 193760.400 5.583911-5 194510.800 5.371934-5 195636.400 5.086580-52037 3102 1712
 196762.000 4.829867-5 197887.701 4.603390-5 199013.300 4.398215-52037 3102 1713
 200138.900 4.216220-5 201264.500 4.054855-5 202014.900 3.951369-52037 3102 1714
 203515.800 3.773372-5 205016.600 3.622902-5 206517.400 3.499891-52037 3102 1715
 208035.451 3.406020-5 209198.000 3.358145-5 210105.900 3.337460-52037 3102 1716
 210711.100 3.334847-5 211618.900 3.350962-5 212375.500 3.388715-52037 3102 1717
 212980.701 3.439460-5 213434.600 3.492477-5 213888.551 3.564210-52037 3102 1718
 214342.500 3.655546-5 214645.100 3.732087-5 215023.351 3.849031-52037 3102 1719
 215250.300 3.932362-5 215552.900 4.063342-5 215855.500 4.220954-52037 3102 1720
 216082.551 4.361596-5 216309.500 4.523325-5 216536.451 4.714322-52037 3102 1721
 216687.750 4.858992-5 216884.400 5.070980-5 217066.000 5.297933-52037 3102 1722
 217247.600 5.560005-5 217368.600 5.757513-5 217489.700 5.976272-52037 3102 1723
 217610.700 6.219249-5 217731.800 6.490129-5 217852.800 6.793124-52037 3102 1724
 217973.900 7.133500-5 218094.900 7.517384-5 218246.176 8.068911-52037 3102 1725
 218337.000 8.446068-5 218427.751 8.864484-5 218518.551 9.327916-52037 3102 1726
 218609.351 9.846243-5 218700.100 1.042455-4 218790.926 1.107642-42037 3102 1727
 218881.701 1.180972-4 218942.200 1.235314-4 219002.750 1.294588-42037 3102 1728
 219063.300 1.359283-4 219123.801 1.430186-4 219184.300 1.508083-42037 3102 1729
 219244.851 1.593959-4 219305.400 1.688761-4 219365.900 1.793896-42037 3102 1730
 219426.400 1.910876-4 219486.900 2.041061-4 219532.276 2.148792-42037 3102 1731
 219577.676 2.266858-4 219623.089 2.396154-4 219668.500 2.538061-42037 3102 1732
 219713.876 2.694134-4 219759.251 2.866462-4 219804.638 3.057350-42037 3102 1733
 219850.051 3.269264-4 219895.463 3.505779-4 219940.851 3.770221-42037 3102 1734
 219986.226 4.066750-4 220016.476 4.285269-4 220046.738 4.522521-42037 3102 1735
 220077.014 4.780334-4 220107.289 5.061612-4 220137.563 5.368808-42037 3102 1736
 220167.826 5.704880-4 220198.076 6.073254-4 220228.326 6.477720-42037 3102 1737
 220258.576 6.923903-4 220288.838 7.416998-4 220319.114 7.963264-42037 3102 1738
 220349.389 8.568875-4 220372.095 9.064890-4 220394.800 9.604120-42037 3102 1739
 220417.489 1.019098-3 220440.176 1.082904-3 220462.864 1.152406-32037 3102 1740
 220485.551 1.228137-3 220508.238 1.310844-3 220530.938 1.401193-32037 3102 1741
 220553.645 1.499843-3 220576.351 1.607653-3 220599.058 1.725395-32037 3102 1742
 220621.763 1.853948-3 220644.463 1.993992-3 220667.151 2.146254-32037 3102 1743
 220689.839 2.311198-3 220712.526 2.489281-3 220735.214 2.680374-32037 3102 1744
 220757.900 2.883675-3 220796.489 3.252718-3 220860.800 3.890491-32037 3102 1745
 220891.051 4.168384-3 220913.738 4.351698-3 220936.426 4.503467-32037 3102 1746
 220951.551 4.582932-3 220966.676 4.642530-3 220981.800 4.680629-32037 3102 1747
 220999.400 4.696477-3 221019.176 4.677015-3 221039.839 4.615717-32037 3102 1748
 221060.500 4.515769-3 221083.189 4.367424-3 221105.876 4.186733-32037 3102 1749
 221131.601 3.954130-3 221184.601 3.431536-3 221229.633 2.991683-32037 3102 1750
 221261.408 2.702262-3 221285.239 2.500522-3 221309.070 2.313077-32037 3102 1751
 221332.900 2.140134-3 221355.589 1.988455-3 221378.276 1.849041-32037 3102 1752
 221400.964 1.721091-3 221423.651 1.603905-3 221446.338 1.496580-32037 3102 1753
 221469.038 1.398316-3 221491.745 1.308261-3 221514.451 1.225779-32037 3102 1754
 221537.158 1.150246-3 221559.863 1.080931-3 221582.563 1.017305-32037 3102 1755
 221605.251 9.588188-4 221627.939 9.051069-4 221650.626 8.556946-42037 3102 1756
 221680.876 7.953518-4 221711.138 7.408867-4 221741.414 6.916737-42037 3102 1757
 221771.689 6.471198-4 221801.963 6.067286-4 221832.226 5.699528-42037 3102 1758
 221862.476 5.364236-4 221892.726 5.057811-4 221922.976 4.777176-42037 3102 1759
 221953.238 4.519785-4 221983.514 4.282689-4 222013.789 4.064195-42037 3102 1760
 222059.200 3.767672-4 222104.576 3.503455-4 222149.951 3.267209-42037 3102 1761
 222195.326 3.055442-4 222240.701 2.864534-4 222286.076 2.692088-42037 3102 1762
 222331.476 2.535795-4 222376.889 2.393717-4 222422.300 2.264236-42037 3102 1763
 222479.039 2.117998-4 222535.776 1.987865-4 222573.600 1.907469-42037 3102 1764
 222634.101 1.790165-4 222694.600 1.684694-4 222755.150 1.589549-42037 3102 1765
 222815.700 1.503316-4 222876.201 1.425057-4 222936.700 1.353794-42037 3102 1766
 222997.250 1.288730-4 223057.800 1.229087-4 223118.301 1.174372-42037 3102 1767
 223209.076 1.100475-4 223299.900 1.034745-4 223390.651 9.763517-52037 3102 1768
 223481.451 9.239663-5 223572.251 8.770721-5 223663.000 8.346868-52037 3102 1769
 223753.826 7.964265-5 223905.100 7.403833-5 224026.100 7.012867-52037 3102 1770
 224147.200 6.665488-5 224268.200 6.355571-5 224389.300 6.077829-52037 3102 1771
 224510.300 5.828071-5 224631.400 5.602600-5 224752.400 5.398461-52037 3102 1772
 224873.500 5.212782-5 225115.600 4.889917-5 225300.551 4.679478-52037 3102 1773
 225523.000 4.458282-5 225760.650 4.257218-5 225998.400 4.082452-52037 3102 1774
 226223.400 3.940379-5 226448.400 3.817814-5 226598.400 3.740164-52037 3102 1775
 226823.500 3.638974-5 227161.000 3.509594-5 227498.500 3.399716-52037 3102 1776
 227798.500 3.317593-5 228248.601 3.216670-5 228698.600 3.134854-52037 3102 1777
 228998.600 3.090731-5 229598.700 3.021887-5 230198.700 2.974861-52037 3102 1778
 230798.800 2.946308-5 231548.800 2.933350-5 232073.851 2.939004-52037 3102 1779
 232598.900 2.954461-5 233349.000 2.996998-5 233799.000 3.034272-52037 3102 1780
 234399.000 3.098665-5 234999.100 3.181756-5 235599.100 3.286242-52037 3102 1781
 236049.150 3.381620-5 236499.200 3.491783-5 236949.201 3.622401-52037 3102 1782
 237399.300 3.772894-5 237699.300 3.887945-5 237999.300 4.015861-52037 3102 1783
 238299.300 4.158293-5 238599.400 4.317177-5 238899.400 4.494796-52037 3102 1784
 239199.400 4.693868-5 239574.400 4.978107-5 239874.451 5.238267-52037 3102 1785
 240174.500 5.532957-5 240474.500 5.868097-5 240699.500 6.149223-52037 3102 1786
 240924.500 6.462983-5 241149.600 6.808995-5 241374.601 7.197659-52037 3102 1787
 241599.600 7.628838-5 241824.601 8.116729-5 241974.601 8.474300-52037 3102 1788
 242124.601 8.862095-5 242274.601 9.283436-5 242424.650 9.742106-52037 3102 1789
 242574.701 1.024239-4 242724.701 1.078921-4 242799.700 1.107737-42037 3102 1790
 242949.700 1.170427-4 243099.700 1.239313-4 243249.700 1.315193-42037 3102 1791
 243399.700 1.398961-4 243549.700 1.491684-4 243699.700 1.594553-42037 3102 1792
 243849.800 1.708973-4 244037.301 1.870487-4 244149.800 1.978704-42037 3102 1793
 244262.301 2.096862-4 244374.801 2.225280-4 244487.301 2.365825-42037 3102 1794
 244599.800 2.518860-4 244712.301 2.686618-4 244824.801 2.869505-42037 3102 1795
 244937.326 3.070127-4 245049.900 3.288706-4 245162.401 3.528155-42037 3102 1796
 245274.900 3.788529-4 245387.401 4.072543-4 245499.900 4.379455-42037 3102 1797
 245619.900 4.733881-4 245739.900 5.115222-4 245859.900 5.521182-42037 3102 1798
 246039.900 6.166023-4 246339.900 7.260587-4 246460.000 7.663951-42037 3102 1799
 246580.000 8.019417-4 246670.001 8.242327-4 246760.000 8.418719-42037 3102 1800
 246850.001 8.541687-4 246940.000 8.606159-4 246991.000 8.616050-42037 3102 1801
 247060.001 8.596701-4 247150.000 8.518455-4 247240.001 8.382741-42037 3102 1802
 247330.000 8.195097-4 247390.000 8.044695-4 247510.000 7.694109-42037 3102 1803
 247630.000 7.294294-4 247825.101 6.589140-4 248065.101 5.714711-42037 3102 1804
 248200.100 5.248850-4 248335.101 4.812596-4 248477.601 4.388379-42037 3102 1805
 248612.601 4.022432-4 248725.100 3.742716-4 248837.601 3.486341-42037 3102 1806
 248950.150 3.250492-4 249062.701 3.035309-4 249175.200 2.837764-42037 3102 1807
 249287.701 2.657582-4 249400.201 2.492239-4 249512.701 2.341325-42037 3102 1808
 249625.200 2.202670-4 249737.701 2.075883-4 249850.201 1.959169-42037 3102 1809
 249981.451 1.835157-4 250150.200 1.692397-4 250300.300 1.579068-42037 3102 1810
 250450.300 1.477071-4 250600.300 1.385037-4 250750.300 1.301791-42037 3102 1811
 250900.300 1.226311-4 251050.300 1.157697-4 251200.300 1.095195-42037 3102 1812
 251350.300 1.038110-4 251500.300 9.858784-5 251650.400 9.379693-52037 3102 1813
 251800.400 8.939430-5 251950.400 8.534002-5 252100.400 8.159933-52037 3102 1814
 252325.400 7.652956-5 252550.400 7.196965-5 252775.400 6.791767-52037 3102 1815
 253000.500 6.424817-5 253225.500 6.096327-5 253450.500 5.797037-52037 3102 1816
 253675.500 5.527313-5 253975.500 5.203808-5 254275.601 4.917198-52037 3102 1817
 254500.600 4.722809-5 254800.600 4.488705-5 255100.600 4.278762-52037 3102 1818
 255400.600 4.089932-5 255700.700 3.919518-5 256000.700 3.765244-52037 3102 1819
 256300.700 3.625157-5 256600.700 3.497595-5 257050.801 3.327644-52037 3102 1820
 257500.800 3.176811-5 257950.851 3.045414-5 258400.900 2.927863-52037 3102 1821
 259000.900 2.791939-5 259601.000 2.674982-5 260201.000 2.573873-52037 3102 1822
 260801.100 2.486030-5 261401.100 2.409421-5 262001.100 2.342395-52037 3102 1823
 262601.200 2.283602-5 263501.251 2.209140-5 264401.300 2.146496-52037 3102 1824
 265301.400 2.095865-5 266594.900 2.037687-5 267495.000 2.006640-52037 3102 1825
 268845.150 1.972420-5 270195.300 1.948976-5 271545.400 1.936965-52037 3102 1826
 272895.500 1.933194-5 274695.650 1.941775-5 276495.800 1.964234-52037 3102 1827
 278296.000 2.000265-5 280096.200 2.050129-5 281896.300 2.114654-52037 3102 1828
 283696.500 2.195193-5 285046.650 2.267890-5 286396.800 2.350685-52037 3102 1829
 287746.851 2.447445-5 289097.000 2.557089-5 289997.100 2.639686-52037 3102 1830
 290897.200 2.730363-5 291797.300 2.829961-5 292697.300 2.939501-52037 3102 1831
 293597.400 3.060142-5 294497.500 3.193235-5 295397.600 3.340351-52037 3102 1832
 296297.700 3.503359-5 297197.800 3.684420-5 298097.800 3.886126-52037 3102 1833
 299222.950 4.172661-5 300123.001 4.433066-5 301023.101 4.726521-52037 3102 1834
 301698.200 4.970462-5 302373.251 5.241306-5 303048.300 5.537264-52037 3102 1835
 303723.351 5.867921-5 304398.400 6.231237-5 304848.500 6.497269-52037 3102 1836
 305298.500 6.783512-5 305748.500 7.092010-5 306198.600 7.425056-52037 3102 1837
 306648.600 7.785232-5 307323.700 8.382566-5 307886.251 8.941472-52037 3102 1838
 308448.800 9.561510-5 309011.351 1.025468-4 309461.400 1.086875-42037 3102 1839
 309967.700 1.163153-4 310474.001 1.248153-4 310924.001 1.332008-42037 3102 1840
 311374.101 1.424773-4 311824.101 1.527639-4 312274.150 1.641984-42037 3102 1841
 312611.700 1.736232-4 312949.200 1.838578-4 313286.700 1.949852-42037 3102 1842
 313624.301 2.070983-4 313961.800 2.202980-4 314299.301 2.346930-42037 3102 1843
 314636.900 2.504029-4 314974.400 2.675540-4 315311.900 2.862800-42037 3102 1844
 315649.501 3.067181-4 315987.000 3.290030-4 316324.501 3.532618-42037 3102 1845
 316662.100 3.796021-4 317033.351 4.110989-4 317449.601 4.495307-42037 3102 1846
 317899.700 4.945367-4 318439.700 5.526272-4 319429.801 6.629483-42037 3102 1847
 319879.900 7.091963-4 320239.900 7.413474-4 320509.900 7.614285-42037 3102 1848
 320779.900 7.772425-4 321050.001 7.881741-4 321320.000 7.937728-42037 3102 1849
 321455.000 7.945265-4 321680.001 7.925612-4 321950.000 7.851901-42037 3102 1850
 322220.101 7.725988-4 322490.100 7.552910-4 322760.101 7.339232-42037 3102 1851
 323120.150 7.004130-4 323570.200 6.530649-4 324740.300 5.226189-42037 3102 1852
 325190.301 4.755428-4 325550.400 4.403083-4 325910.400 4.075093-42037 3102 1853
 326225.400 3.808258-4 326563.001 3.544854-4 326900.500 3.300917-42037 3102 1854
 327238.001 3.078669-4 327575.600 2.873705-4 327913.101 2.687564-42037 3102 1855
 328250.600 2.516175-4 328588.150 2.360629-4 328925.700 2.217387-42037 3102 1856
 329263.200 2.087294-4 329600.700 1.967365-4 329938.301 1.858249-42037 3102 1857
 330275.800 1.757496-4 330500.800 1.695245-4 330950.900 1.580749-42037 3102 1858
 331400.900 1.478245-4 331851.000 1.386352-4 332301.000 1.303804-42037 3102 1859
 332751.000 1.229517-4 333201.100 1.162543-4 333651.100 1.102061-42037 3102 1860
 334101.200 1.047360-4 334551.200 9.978196-5 335001.200 9.529036-52037 3102 1861
 335451.300 9.121381-5 335901.300 8.751132-5 336351.400 8.414674-52037 3102 1862
 336801.400 8.108849-5 337251.500 7.830884-5 337926.501 7.463314-52037 3102 1863
 338601.600 7.141195-5 339276.650 6.867769-5 339951.700 6.630178-52037 3102 1864
 340626.751 6.431644-5 341301.800 6.262393-5 341976.900 6.125680-52037 3102 1865
 342877.001 5.984055-5 343598.000 5.902132-5 344423.051 5.845175-52037 3102 1866
 345316.851 5.818735-5 345385.600 5.818479-5 346348.200 5.839679-52037 3102 1867
 347173.301 5.896140-5 347998.300 5.983925-5 348823.400 6.111555-52037 3102 1868
 349648.500 6.273951-5 350473.501 6.482131-5 351023.551 6.644696-52037 3102 1869
 351573.601 6.829066-5 352123.650 7.036966-5 352673.700 7.270396-52037 3102 1870
 353223.751 7.531676-5 353773.801 7.823491-5 354048.800 7.977910-52037 3102 1871
 354598.800 8.321036-5 355148.900 8.703283-5 355698.900 9.129047-52037 3102 1872
 356386.501 9.731232-5 356936.501 1.027485-4 357486.551 1.088170-42037 3102 1873
 358036.601 1.155760-4 358586.650 1.231621-4 359136.700 1.316618-42037 3102 1874
 359549.200 1.387112-4 360030.500 1.477499-4 360546.150 1.585283-42037 3102 1875
 361061.800 1.705737-4 361474.400 1.812307-4 361886.900 1.928881-42037 3102 1876
 362299.400 2.056397-4 362712.000 2.195878-4 363124.501 2.348201-42037 3102 1877
 363537.000 2.514327-4 363949.551 2.695092-4 364362.100 2.891074-42037 3102 1878
 364829.600 3.131962-4 365379.650 3.440339-4 365929.700 3.772996-42037 3102 1879
 367579.800 4.830842-4 368019.900 5.089856-4 368459.900 5.317141-42037 3102 1880
 368789.900 5.458948-4 369119.900 5.570430-4 369450.001 5.647213-42037 3102 1881
 369780.000 5.686118-4 369939.501 5.691029-4 370220.000 5.676391-42037 3102 1882
 370550.001 5.623240-4 370880.100 5.533080-4 371210.101 5.409507-42037 3102 1883
 371540.100 5.257193-4 371980.100 5.018690-4 372530.200 4.682068-42037 3102 1884
 373850.301 3.826469-4 374400.300 3.488768-4 374950.400 3.175974-42037 3102 1885
 375390.400 2.945404-4 375775.400 2.758439-4 376188.001 2.574824-42037 3102 1886
 376600.500 2.405684-4 377013.001 2.252994-4 377425.600 2.113564-42037 3102 1887
 377838.101 1.989044-4 378250.600 1.876540-4 378663.150 1.777700-42037 3102 1888
 379075.700 1.690146-4 379350.700 1.638949-4 379625.700 1.593326-42037 3102 1889
 379900.700 1.553487-4 380175.800 1.519773-4 380450.800 1.492737-42037 3102 1890
 380725.800 1.473163-4 381069.551 1.461025-4 381138.300 1.460313-42037 3102 1891
 381344.626 1.463319-4 381550.900 1.473477-4 381757.151 1.493335-42037 3102 1892
 381894.651 1.512551-4 382032.151 1.537646-4 382169.651 1.569676-42037 3102 1893
 382238.400 1.588121-4 382375.900 1.633039-4 382513.400 1.688690-42037 3102 1894
 382616.551 1.739057-4 382719.700 1.798424-4 382822.851 1.868471-42037 3102 1895
 382926.000 1.950980-4 383003.326 2.022806-4 383080.651 2.104556-42037 3102 1896
 383157.988 2.197991-4 383235.351 2.304994-4 383312.713 2.428192-42037 3102 1897
 383381.476 2.553786-4 383445.939 2.687771-4 383510.400 2.838647-42037 3102 1898
 383574.864 3.012569-4 383617.839 3.142799-4 383660.813 3.285853-42037 3102 1899
 383703.788 3.443558-4 383746.764 3.618141-4 383789.739 3.811617-42037 3102 1900
 383832.713 4.026790-4 383875.688 4.267327-4 383918.664 4.536863-42037 3102 1901
 383961.639 4.839951-4 383993.870 5.092850-4 384026.100 5.371013-42037 3102 1902
 384064.776 5.743057-4 384093.783 6.052867-4 384122.789 6.392836-42037 3102 1903
 384151.795 6.766350-4 384180.800 7.178182-4 384210.370 7.645450-42037 3102 1904
 384239.939 8.166054-4 384269.508 8.748034-4 384299.076 9.401813-42037 3102 1905
 384318.788 9.883442-4 384338.500 1.040596-3 384357.238 1.094489-32037 3102 1906
 384375.976 1.153013-3 384394.714 1.216696-3 384413.450 1.286077-32037 3102 1907
 384432.189 1.361852-3 384450.926 1.444852-3 384469.663 1.535980-32037 3102 1908
 384488.400 1.636284-3 384509.458 1.761597-3 384530.514 1.902140-32037 3102 1909
 384544.551 2.005345-3 384558.589 2.117094-3 384572.626 2.238435-32037 3102 1910
 384586.663 2.370636-3 384600.700 2.514997-3 384617.764 2.708832-32037 3102 1911
 384634.826 2.925349-3 384646.200 3.083848-3 384657.576 3.254923-32037 3102 1912
 384668.951 3.439757-3 384680.326 3.639822-3 384691.700 3.856790-32037 3102 1913
 384705.801 4.152117-3 384719.901 4.480150-3 384734.001 4.845083-32037 3102 1914
 384748.101 5.251520-3 384757.501 5.548086-3 384766.900 5.867014-32037 3102 1915
 384779.101 6.317301-3 384791.301 6.812283-3 384803.501 7.356127-32037 3102 1916
 384815.700 7.952748-3 384825.676 8.482376-3 384835.650 9.051163-32037 3102 1917
 384845.626 9.660101-3 384859.363 1.056434-2 384870.651 1.136194-22037 3102 1918
 384885.700 1.249305-2 384924.076 1.554853-2 384940.626 1.679452-22037 3102 1919
 384952.651 1.759803-2 384963.900 1.823336-2 384975.151 1.872531-22037 3102 1920
 384983.726 1.898796-2 384993.376 1.915577-2 385000.000 1.918905-22037 3102 1921
 385008.576 1.913177-2 385017.839 1.894499-2 385027.100 1.863553-22037 3102 1922
 385038.389 1.810913-2 385049.676 1.744454-2 385061.326 1.664657-22037 3102 1923
 385073.700 1.571349-2 385112.776 1.260116-2 385127.826 1.146313-22037 3102 1924
 385142.876 1.040222-2 385154.632 9.634664-3 385167.326 8.868525-32037 3102 1925
 385180.020 8.166735-3 385192.714 7.526925-3 385205.408 6.945419-32037 3102 1926
 385218.100 6.417989-3 385227.501 6.059473-3 385236.901 5.726278-32037 3102 1927
 385246.301 5.416546-3 385260.401 4.992231-3 385274.501 4.611507-32037 3102 1928
 385288.601 4.269467-3 385299.413 4.030635-3 385311.639 3.782590-32037 3102 1929
 385323.864 3.555533-3 385336.089 3.347235-3 385348.314 3.155763-32037 3102 1930
 385360.539 2.979500-3 385372.764 2.817066-3 385384.988 2.667207-32037 3102 1931
 385397.682 2.523648-3 385410.845 2.386463-3 385424.008 2.259974-32037 3102 1932
 385437.170 2.143138-3 385456.914 1.984060-3 385476.658 1.842088-32037 3102 1933
 385496.400 1.714918-3 385513.313 1.616231-3 385530.226 1.525898-32037 3102 1934
 385547.139 1.443017-3 385564.051 1.366854-3 385580.964 1.296726-32037 3102 1935
 385597.876 1.232009-3 385623.245 1.143886-3 385641.107 1.087595-32037 3102 1936
 385659.920 1.032888-3 385688.139 9.585970-4 385716.358 8.924057-42037 3102 1937
 385744.576 8.333054-4 385772.795 7.803290-4 385801.001 7.324254-42037 3102 1938
 385829.201 6.890740-4 385857.400 6.497930-4 385885.601 6.140646-42037 3102 1939
 385913.801 5.814698-4 385932.600 5.613010-4 385970.201 5.242712-42037 3102 1940
 386007.801 4.911567-4 386045.401 4.614733-4 386083.000 4.347393-42037 3102 1941
 386120.601 4.105658-4 386158.200 3.886172-4 386195.801 3.686461-42037 3102 1942
 386233.400 3.504416-4 386271.001 3.337834-4 386327.401 3.113141-42037 3102 1943
 386383.800 2.914468-4 386428.926 2.772053-4 386496.614 2.581957-42037 3102 1944
 386564.300 2.414122-4 386631.989 2.266215-4 386699.676 2.135010-42037 3102 1945
 386767.363 2.018177-4 386835.051 1.913474-4 386902.738 1.819245-42037 3102 1946
 386970.426 1.734598-4 387060.676 1.633107-4 387143.401 1.551055-42037 3102 1947
 387218.601 1.483651-4 387293.801 1.422390-4 387406.600 1.340309-42037 3102 1948
 387519.476 1.268451-4 387632.301 1.204860-4 387745.101 1.148437-42037 3102 1949
 387857.900 1.098008-4 388008.300 1.038588-4 388158.700 9.864818-52037 3102 1950
 388309.100 9.405228-5 388459.500 8.996935-5 388610.000 8.631740-52037 3102 1951
 388760.400 8.303165-5 388910.800 8.005820-5 389136.400 7.610522-52037 3102 1952
 389362.000 7.261196-5 389587.700 6.954348-5 389789.900 6.705958-52037 3102 1953
 390044.301 6.429013-5 390299.150 6.177898-5 390554.051 5.951728-52037 3102 1954
 390808.900 5.746614-5 391121.301 5.521424-5 391306.300 5.394612-52037 3102 1955
 391676.400 5.167925-5 392046.400 4.964638-5 392416.400 4.780890-52037 3102 1956
 392971.501 4.536829-5 393526.500 4.319786-5 394081.551 4.129094-52037 3102 1957
 394636.600 3.956659-5 395376.700 3.753610-5 396116.700 3.574823-52037 3102 1958
 396856.800 3.416216-5 397596.800 3.274629-5 398336.900 3.147616-52037 3102 1959
 399077.000 3.033228-5 399817.000 2.929904-5 400557.100 2.836371-52037 3102 1960
 401667.150 2.713025-5 402777.200 2.604836-5 403887.351 2.512765-52037 3102 1961
 404997.400 2.432320-5 405737.500 2.385633-5 407217.600 2.306371-52037 3102 1962
 408697.700 2.244293-5 410177.800 2.198058-5 411657.900 2.166837-52037 3102 1963
 413138.000 2.150286-5 413878.100 2.147565-5 414988.200 2.152120-52037 3102 1964
 416098.300 2.162755-5 417208.351 2.184995-5 418170.400 2.211832-52037 3102 1965
 419354.500 2.257664-5 420538.600 2.318958-5 421426.700 2.377330-52037 3102 1966
 422314.800 2.446443-5 423202.801 2.530920-5 424090.900 2.630464-52037 3102 1967
 424682.900 2.708354-5 425275.000 2.796539-5 425867.000 2.896649-52037 3102 1968
 426459.100 3.010686-5 427051.100 3.141113-5 427643.200 3.291063-52037 3102 1969
 428235.200 3.464341-5 428679.251 3.613446-5 429123.300 3.779774-52037 3102 1970
 429567.301 3.969986-5 430011.400 4.184110-5 430307.400 4.344584-52037 3102 1971
 430603.400 4.520770-5 430899.400 4.714683-5 431195.400 4.929050-52037 3102 1972
 431491.500 5.167112-5 431787.500 5.432419-5 432083.500 5.729441-52037 3102 1973
 432379.500 6.063604-5 432675.600 6.441596-5 432897.601 6.759684-52037 3102 1974
 433119.601 7.109305-5 433341.601 7.499595-5 433563.600 7.931715-52037 3102 1975
 433785.676 8.418394-5 434007.700 8.961615-5 434155.700 9.363365-52037 3102 1976
 434303.700 9.800029-5 434451.700 1.027575-4 434599.700 1.079518-42037 3102 1977
 434747.700 1.136376-4 434895.700 1.198779-4 435043.700 1.267436-42037 3102 1978
 435191.751 1.343154-4 435339.800 1.426952-4 435487.801 1.519829-42037 3102 1979
 435635.800 1.623064-4 435783.801 1.738072-4 435931.800 1.866215-42037 3102 1980
 436042.801 1.972145-4 436153.800 2.087500-4 436264.851 2.213248-42037 3102 1981
 436375.900 2.349813-4 436486.900 2.498545-4 436597.900 2.659915-42037 3102 1982
 436708.900 2.835028-4 436819.900 3.023932-4 436953.101 3.269638-42037 3102 1983
 437086.301 3.535460-4 437263.900 3.917271-4 437619.150 4.725143-42037 3102 1984
 437752.401 5.012703-4 437885.600 5.269986-4 437974.400 5.416664-42037 3102 1985
 438063.200 5.538154-4 438152.001 5.630605-4 438240.800 5.691204-42037 3102 1986
 438326.600 5.718126-4 438359.200 5.719911-4 438448.001 5.702594-42037 3102 1987
 438536.800 5.653982-4 438625.601 5.577176-4 438758.801 5.418290-42037 3102 1988
 438892.000 5.221477-4 439247.300 4.631606-4 439424.900 4.356211-42037 3102 1989
 439558.101 4.173807-4 439691.301 4.016866-4 439780.100 3.927715-42037 3102 1990
 439891.101 3.834573-4 440002.100 3.761689-4 440113.150 3.710119-42037 3102 1991
 440224.200 3.679634-4 440316.700 3.670552-4 440418.450 3.679286-42037 3102 1992
 440520.200 3.706565-4 440631.200 3.759432-4 440742.200 3.837036-42037 3102 1993
 440853.200 3.941892-4 440964.200 4.075530-4 441047.451 4.196860-42037 3102 1994
 441130.701 4.337849-4 441213.951 4.500260-4 441297.200 4.686170-42037 3102 1995
 441380.451 4.898066-4 441463.726 5.138980-4 441547.014 5.412224-42037 3102 1996
 441630.300 5.722403-4 441712.351 6.067551-4 441767.051 6.323298-42037 3102 1997
 441849.100 6.750824-4 441919.451 7.161313-4 441989.801 7.617558-42037 3102 1998
 442057.801 8.107377-4 442121.101 8.615082-4 442184.401 9.175656-42037 3102 1999
 442247.726 9.797529-4 442311.064 1.048548-3 442374.400 1.124692-32037 3102 2000
 442421.301 1.186357-3 442468.200 1.252840-3 442515.101 1.324416-32037 3102 2001
 442562.000 1.401534-3 442608.901 1.484552-3 442655.801 1.573703-32037 3102 2002
 442726.151 1.719302-3 442794.626 1.875319-3 442862.164 2.042763-32037 3102 2003
 442929.700 2.222653-3 443042.264 2.542762-3 443147.326 2.846825-32037 3102 2004
 443222.376 3.050264-3 443278.663 3.185593-3 443334.950 3.299013-32037 3102 2005
 443372.476 3.359263-3 443410.000 3.405278-3 443451.251 3.438012-32037 3102 2006
 443498.500 3.451182-3 443542.776 3.439122-3 443588.939 3.402206-32037 3102 2007
 443635.100 3.341977-3 443691.389 3.240484-3 443747.676 3.113747-32037 3102 2008
 443785.200 3.018549-3 443867.700 2.789137-3 444040.251 2.286481-32037 3102 2009
 444107.788 2.100032-3 444179.101 1.915961-3 444227.900 1.798314-32037 3102 2010
 444276.701 1.687888-3 444325.500 1.584632-3 444372.401 1.491883-32037 3102 2011
 444419.301 1.405324-3 444466.201 1.324730-3 444513.100 1.249837-32037 3102 2012
 444560.001 1.180154-3 444606.900 1.115370-3 444653.801 1.055192-32037 3102 2013
 444724.151 9.728772-4 444794.501 8.989948-4 444864.851 8.327064-42037 3102 2014
 444935.201 7.731174-4 445005.551 7.194188-4 445075.900 6.711149-42037 3102 2015
 445160.314 6.191369-4 445216.589 5.876700-4 445301.000 5.447162-42037 3102 2016
 445385.414 5.063405-4 445469.826 4.719693-4 445554.238 4.410463-42037 3102 2017
 445638.650 4.131553-4 445723.063 3.879023-4 445807.501 3.650065-42037 3102 2018
 445891.951 3.441762-4 445976.400 3.252022-4 446060.814 3.078665-42037 3102 2019
 446145.226 2.919994-4 446257.776 2.728194-4 446370.326 2.556533-42037 3102 2020
 446482.876 2.402227-4 446595.426 2.262991-4 446708.001 2.137057-42037 3102 2021
 446820.601 2.022737-4 446933.176 1.918750-4 447045.726 1.823888-42037 3102 2022
 447177.051 1.723271-4 447252.101 1.670411-4 447402.200 1.572987-42037 3102 2023
 447552.251 1.485456-4 447702.300 1.406752-4 447852.400 1.335676-42037 3102 2024
 448002.500 1.271327-4 448152.601 1.212886-4 448302.700 1.159669-42037 3102 2025
 448452.751 1.111086-4 448602.800 1.066653-4 448827.951 1.006987-42037 3102 2026
 449053.101 9.539792-5 449278.226 9.073558-5 449503.300 8.656429-52037 3102 2027
 449728.451 8.286837-5 449953.601 7.960857-5 450103.700 7.753303-52037 3102 2028
 450403.800 7.390461-5 450704.000 7.075007-5 451004.200 6.799993-52037 3102 2029
 451304.300 6.559746-5 451604.500 6.349594-5 451904.600 6.165671-52037 3102 2030
 452204.800 6.004757-5 452655.051 5.802339-5 453105.300 5.634986-52037 3102 2031
 453705.600 5.464240-5 454193.400 5.362395-5 454756.200 5.274978-52037 3102 2032
 455319.001 5.221625-5 455881.800 5.193257-5 456257.100 5.189090-52037 3102 2033
 457007.501 5.210887-5 457757.900 5.269879-5 458508.300 5.363866-52037 3102 2034
 459258.700 5.491797-5 460009.100 5.653649-5 460759.500 5.850388-52037 3102 2035
 461462.900 6.068115-5 462012.500 6.262347-5 462598.900 6.494807-52037 3102 2036
 463185.300 6.755564-5 463771.700 7.047623-5 464358.100 7.374697-52037 3102 2037
 465091.101 7.840721-5 465677.551 8.265652-5 466264.001 8.745877-52037 3102 2038
 466850.400 9.291812-5 467407.501 9.882777-5 467876.600 1.044646-42037 3102 2039
 468345.700 1.108615-4 468697.601 1.162484-4 469049.400 1.222392-42037 3102 2040
 469371.950 1.283630-4 469635.900 1.339009-4 469987.700 1.421749-42037 3102 2041
 470222.251 1.483616-4 470456.801 1.551920-4 470691.400 1.627768-42037 3102 2042
 470925.950 1.712569-4 471160.501 1.808179-4 471395.101 1.916828-42037 3102 2043
 471571.026 2.008856-4 471746.900 2.111068-4 471922.851 2.226347-42037 3102 2044
 472098.801 2.356030-4 472216.100 2.452529-4 472333.351 2.558146-42037 3102 2045
 472494.601 2.721416-4 472626.600 2.871114-4 472758.526 3.040871-42037 3102 2046
 472890.450 3.233097-4 473022.376 3.452326-4 473110.326 3.616308-42037 3102 2047
 473198.301 3.796766-4 473286.301 3.996179-4 473374.276 4.217199-42037 3102 2048
 473462.226 4.463288-4 473550.176 4.738236-4 473638.126 5.046910-42037 3102 2049
 473704.088 5.304081-4 473770.051 5.586258-4 473836.013 5.897044-42037 3102 2050
 473902.001 6.239901-4 473968.001 6.619728-4 474034.000 7.041387-42037 3102 2051
 474099.964 7.511397-4 474165.926 8.036651-4 474231.888 8.625190-42037 3102 2052
 474297.851 9.283842-4 474341.826 9.770911-4 474385.800 1.030040-32037 3102 2053
 474429.776 1.087546-3 474473.751 1.150121-3 474517.726 1.218351-32037 3102 2054
 474561.700 1.292706-3 474605.701 1.373829-3 474649.700 1.462487-32037 3102 2055
 474693.701 1.559287-3 474737.700 1.664824-3 474781.676 1.779938-32037 3102 2056
 474825.650 1.905328-3 474869.626 2.041381-3 474913.600 2.188576-32037 3102 2057
 474960.501 2.358073-3 475007.400 2.540140-3 475077.751 2.834284-32037 3102 2058
 475244.876 3.574022-3 475294.726 3.776266-3 475338.714 3.933136-32037 3102 2059
 475382.700 4.061640-3 475422.714 4.147862-3 475462.726 4.200418-32037 3102 2060
 475500.000 4.216677-3 475538.700 4.199175-3 475570.400 4.159461-32037 3102 2061
 475599.726 4.103583-3 475643.714 3.988810-3 475687.700 3.843002-32037 3102 2062
 475731.651 3.673866-3 475804.900 3.360671-3 475926.651 2.824061-32037 3102 2063
 475975.351 2.621158-3 476021.576 2.439786-3 476065.326 2.278739-32037 3102 2064
 476109.076 2.128742-3 476152.826 1.989899-3 476196.576 1.861930-32037 3102 2065
 476240.326 1.744334-3 476284.076 1.636501-3 476327.826 1.537746-32037 3102 2066
 476371.576 1.447370-3 476415.326 1.364676-3 476459.076 1.289006-32037 3102 2067
 476502.826 1.219726-3 476546.576 1.156257-3 476590.326 1.098059-32037 3102 2068
 476634.076 1.044646-3 476677.826 9.955717-4 476743.451 9.292566-42037 3102 2069
 476809.076 8.705433-4 476874.700 8.184586-4 476940.326 7.721326-42037 3102 2070
 477005.951 7.308080-4 477071.576 6.938422-4 477137.200 6.606928-42037 3102 2071
 477202.826 6.309243-4 477268.451 6.043725-4 477312.200 5.878092-42037 3102 2072
 477399.700 5.580099-4 477487.200 5.318489-4 477574.700 5.088037-42037 3102 2073
 477662.251 4.884300-4 477749.800 4.703890-4 477837.301 4.543546-42037 3102 2074
 477968.551 4.335522-4 478099.800 4.159210-4 478231.051 4.010239-42037 3102 2075
 478362.301 3.883067-4 478449.800 3.809364-4 478624.800 3.682893-42037 3102 2076
 478799.800 3.579759-4 478974.800 3.495827-4 479149.800 3.427515-42037 3102 2077
 479412.301 3.348940-4 479674.800 3.290512-4 480024.900 3.237748-42037 3102 2078
 480462.400 3.198365-4 481074.900 3.170615-4 482562.501 3.132215-42037 3102 2079
 483350.000 3.092236-4 484137.601 3.029135-4 485100.100 2.926465-42037 3102 2080
 486150.100 2.808684-4 486675.200 2.766409-4 487025.200 2.754660-42037 3102 2081
 487287.701 2.761040-4 487462.700 2.775165-4 487637.700 2.800310-42037 3102 2082
 487725.200 2.816913-4 487943.951 2.880097-4 488075.200 2.935461-42037 3102 2083
 488206.451 3.008752-4 488337.751 3.104311-4 488425.300 3.184333-42037 3102 2084
 488512.801 3.280443-4 488600.300 3.396282-4 488687.801 3.535647-42037 3102 2085
 488753.426 3.659416-4 488819.051 3.804036-4 488884.676 3.972762-42037 3102 2086
 488950.300 4.170442-4 489015.926 4.403180-4 489059.676 4.581417-42037 3102 2087
 489103.426 4.781182-4 489147.176 5.005596-4 489190.926 5.258234-42037 3102 2088
 489234.676 5.543254-4 489278.426 5.865339-4 489322.176 6.229175-42037 3102 2089
 489354.989 6.532394-4 489387.801 6.866430-4 489420.614 7.234199-42037 3102 2090
 489453.426 7.638450-4 489486.238 8.081703-4 489519.051 8.567071-42037 3102 2091
 489551.864 9.097266-4 489584.676 9.673949-4 489606.551 1.008553-32037 3102 2092
 489650.300 1.096731-3 489687.601 1.177406-3 489762.201 1.349656-32037 3102 2093
 489820.401 1.483288-3 489862.201 1.570039-3 489893.538 1.625504-32037 3102 2094
 489924.851 1.669524-3 489956.163 1.699624-3 489982.051 1.712649-32037 3102 2095
 489998.300 1.715018-3 490023.826 1.709553-3 490049.514 1.692968-32037 3102 2096
 490075.200 1.665964-3 490106.514 1.620543-3 490137.826 1.563802-32037 3102 2097
 490172.276 1.491739-3 490226.576 1.366441-3 490310.101 1.170163-32037 3102 2098
 490352.900 1.076046-3 490395.701 9.890249-4 490427.801 9.289258-42037 3102 2099
 490461.988 8.698293-4 490497.220 8.140390-4 490532.450 7.632633-42037 3102 2100
 490567.683 7.171725-4 490602.913 6.753712-4 490639.451 6.362830-42037 3102 2101
 490678.601 5.984744-4 490717.751 5.644381-4 490756.901 5.338662-42037 3102 2102
 490796.051 5.063311-4 490835.200 4.814697-4 490874.351 4.590076-42037 3102 2103
 490913.501 4.386564-4 490965.701 4.143666-4 491017.901 3.929195-42037 3102 2104
 491070.101 3.738983-4 491122.301 3.569698-4 491174.501 3.418199-42037 3102 2105
 491226.701 3.282246-4 491305.026 3.102997-4 491383.364 2.948405-42037 3102 2106
 491461.700 2.814176-4 491540.001 2.696692-4 491618.301 2.593207-42037 3102 2107
 491722.701 2.473187-4 491827.101 2.369884-4 491931.501 2.280153-42037 3102 2108
 492035.901 2.201510-4 492150.726 2.125813-4 492275.976 2.053147-42037 3102 2109
 492463.900 1.960259-4 492651.851 1.882253-4 492839.800 1.815906-42037 3102 2110
 493090.376 1.741518-4 493340.950 1.678405-4 493508.000 1.641912-42037 3102 2111
 493842.100 1.579114-4 494176.200 1.527254-4 494510.200 1.484145-42037 3102 2112
 494844.300 1.448362-4 495303.700 1.409502-4 495679.600 1.385554-42037 3102 2113
 496264.200 1.361624-4 496786.200 1.353555-4 496890.600 1.353297-42037 3102 2114
 497203.851 1.356959-4 497517.100 1.364259-4 497934.700 1.383200-42037 3102 2115
 498247.900 1.404565-4 498561.100 1.432182-4 498874.301 1.467785-42037 3102 2116
 499187.500 1.511248-4 499500.700 1.565075-4 499802.600 1.626753-42037 3102 2117
 499907.470 1.652605-4 499919.808 1.662455-4 499925.976 1.675433-42037 3102 2118
 499930.604 1.693560-4 499933.688 1.712202-4 499936.773 1.738392-42037 3102 2119
 499939.857 1.774730-4 499942.171 1.810571-4 499944.483 1.855519-42037 3102 2120
 499946.797 1.911494-4 499949.110 1.980501-4 499951.423 2.064907-42037 3102 2121
 499952.965 2.130976-4 499954.508 2.205775-4 499956.050 2.290118-42037 3102 2122
 499957.592 2.384864-4 499959.135 2.490868-4 499960.677 2.608963-42037 3102 2123
 499962.219 2.739992-4 499963.761 2.884838-4 499965.303 3.044311-42037 3102 2124
 499966.846 3.219113-4 499968.388 3.409936-4 499969.930 3.617451-42037 3102 2125
 499971.472 3.842202-4 499973.014 4.084570-4 499974.556 4.344869-42037 3102 2126
 499976.098 4.623405-4 499978.411 5.075329-4 499980.725 5.567924-42037 3102 2127
 499983.038 6.099589-4 499985.351 6.668444-4 499988.435 7.479175-42037 3102 2128
 499991.520 8.341325-4 499996.146 9.704448-4 500005.168 1.243790-32037 3102 2129
 500010.335 1.393088-3 500013.779 1.485655-3 500017.224 1.570996-32037 3102 2130
 500020.668 1.648037-3 500024.112 1.716209-3 500027.556 1.775292-32037 3102 2131
 500031.001 1.825500-3 500034.446 1.867273-3 500039.613 1.915748-32037 3102 2132
 500044.779 1.949862-3 500048.223 1.966202-3 500055.111 1.987524-32037 3102 2133
 500065.446 2.001855-3 500082.667 2.007365-3 500110.221 2.007888-32037 3102 2134
 599882.001 1.910116-3 704767.506 1.901570-3 800000.000 1.873008-32037 3102 2135
 900000.000 1.911995-3 1000000.00 1.914968-3 1500000.00 7.699376-42037 3102 2136
 2000000.00 7.533016-4 2500000.00 7.793962-4 3021162.31 7.150573-42037 3102 2137
 3500000.00 6.710955-4 4000000.00 5.374023-4 4500000.00 4.452989-42037 3102 2138
 5000000.00 3.346037-4 5500000.00 2.843016-4 6500000.00 2.355009-42037 3102 2139
 7000000.00 2.245997-4 7500000.00 2.100005-4 8000000.00 2.023995-42037 3102 2140
 8500000.00 1.887005-4 9200000.00 1.786995-4 9567013.96 1.693587-42037 3102 2141
 10000000.0 1.594007-4 10141082.0 1.584971-4 10284154.4 1.575814-42037 3102 2142
 10429245.3 1.566528-4 10576383.2 1.557111-4 10725596.9 1.547562-42037 3102 2143
 10876915.8 1.537877-4 11000000.0 1.530000-4 11155190.2 1.542570-42037 3102 2144
 11312569.8 1.555318-4 11472169.8 1.568246-4 11634021.5 1.581356-42037 3102 2145
 11798156.6 1.594651-4 11964607.4 1.608133-4 12000000.0 1.611000-42037 3102 2146
 12169298.4 1.662297-4 12340985.3 1.714319-4 12515094.4 1.767074-42037 3102 2147
 12691659.8 1.820573-4 12870716.3 1.874827-4 13000000.0 1.914000-42037 3102 2148
 13183406.6 2.034865-4 13369400.7 2.157435-4 13558018.9 2.281734-42037 3102 2149
 13749298.2 2.407787-4 13943276.0 2.535619-4 14000000.0 2.573000-42037 3102 2150
 14197514.8 2.707705-4 14397816.2 2.844311-4 14500000.0 2.914000-42037 3102 2151
 14704568.9 3.206534-4 14912023.9 3.503194-4 15000000.0 3.629000-42037 3102 2152
 15211623.0 3.868346-4 15426231.6 4.111068-4 15643868.0 4.357215-42037 3102 2153
 15864574.8 4.606834-4 16000000.0 4.760000-4 16225731.2 4.946454-42037 3102 2154
 16454647.1 5.135538-4 16686792.5 5.327291-4 16922213.1 5.521748-42037 3102 2155
 17000000.0 5.586000-4 17239839.4 5.633248-4 17483062.5 5.681163-42037 3102 2156
 17729717.0 5.729754-4 17979851.4 5.779031-4 18000000.0 5.783000-42037 3102 2157
 18253947.6 5.854105-4 18511477.9 5.926214-4 18772641.6 5.999340-42037 3102 2158
 19000000.0 6.063000-4 19268055.8 6.043968-4 19539893.4 6.024668-42037 3102 2159
 19815566.1 6.005095-4 20000000.0 5.992000-4                      2037 3102 2160
                                                                  2037 3  099999
 2.004400+4 4.357790+1          0          0          0          02037 3103    1
-4.876000+6-4.876000+6          0          0          1         262037 3103    2
         26          2          0          0          0          02037 3103    3
 4.987892+6 0.000000+0 5.174682+6 0.000000+0 5.379578+6 0.000000+02037 3103    4
 5.500000+6 0.000000+0 5.519824+6 2.025740-7 5.818524+6 3.254870-62037 3103    5
 6.000000+6 5.109300-6 6.500000+6 9.962900-5 7.000000+6 5.133000-42037 3103    6
 7.500000+6 1.421000-3 8.000000+6 2.830000-3 8.500000+6 4.677000-32037 3103    7
 9.200000+6 7.880000-3 9.500000+6 9.403000-3 1.000000+7 1.212000-22037 3103    8
 1.100000+7 1.773000-2 1.200000+7 2.336000-2 1.300000+7 2.906000-22037 3103    9
 1.400000+7 3.493000-2 1.450000+7 3.795000-2 1.500000+7 4.043000-22037 3103   10
 1.600000+7 4.201000-2 1.700000+7 3.920001-2 1.800000+7 3.416000-22037 3103   11
 1.900000+7 2.896000-2 2.000000+7 2.469000-2                      2037 3103   12
                                                                  2037 3  099999
 2.004400+4 4.357790+1          0          0          0          02037 3107    1
-2.755000+6-2.755000+6          0          0          1         532037 3107    2
         53          2          0          0          0          02037 3107    3
 2.818220+6 0.000000+0 2.989359+6 0.000000+0 3.346061+6 0.000000+02037 3107    4
 3.876664+6 0.000000+0 4.203291+6 0.000000+0 4.490739+6 0.000000+02037 3107    5
 4.730109+6 0.000000+0 4.848771+6 0.000000+0 5.000000+6 0.000000+02037 3107    6
 5.192481+6 1.110890-7 5.271555+6 1.567250-7 5.446172+6 2.575040-72037 3107    7
 5.500000+6 2.885700-7 5.575064+6 1.000210-6 5.614344+6 1.372600-62037 3107    8
 5.774538+6 2.891320-6 5.834380+6 3.458650-6 5.896985+6 4.052170-62037 3107    9
 6.000000+6 5.028800-6 6.011862+6 5.915210-6 6.178602+6 1.837520-52037 3107   10
 6.221259+6 2.156280-5 6.281920+6 2.609580-5 6.326930+6 2.945920-52037 3107   11
 6.383192+6 3.366350-5 6.468096+6 4.000810-5 6.492648+6 4.184280-52037 3107   12
 6.500000+6 4.239220-5 6.600056+6 7.743110-5 6.635860+6 8.996940-52037 3107   13
 6.677801+6 1.046570-4 6.704397+6 1.139710-4 6.744292+6 1.279420-42037 3107   14
 6.796462+6 1.462110-4 6.877276+6 1.745120-4 7.000000+6 2.174890-42037 3107   15
 7.500000+6 7.705960-4 8.000000+6 2.014718-3 8.500000+6 4.006788-32037 3107   16
 9.200000+6 7.034510-3 9.500000+6 8.008106-3 1.000000+7 8.957805-32037 3107   17
 1.100000+7 9.160000-3 1.200000+7 9.387999-3 1.300000+7 1.286000-22037 3107   18
 1.400000+7 2.111000-2 1.450000+7 2.616000-2 1.500000+7 3.084000-22037 3107   19
 1.600000+7 3.666000-2 1.700000+7 3.728000-2 1.800000+7 3.331001-22037 3107   20
 1.900000+7 2.680000-2 2.000000+7 1.981000-2                      2037 3107   21
                                                                  2037 3  099999
                                                                  2037 0  0    0
 2.004400+4 4.357790+1          0          0          1          12037 8 16    1
 2.004300+4 0.000000+0          3          0          0          02037 8 16    2
                                                                  2037 8  099999
 2.004400+4 4.357790+1          0          0          1          12037 8 17    1
 2.004200+4 0.000000+0          3          0          0          02037 8 17    2
                                                                  2037 8  099999
 2.004400+4 4.357790+1          0          0          1          12037 8 22    1
 1.804000+4 0.000000+0          3          0          0          02037 8 22    2
                                                                  2037 8  099999
 2.004400+4 4.357790+1          0          0          1          12037 8 28    1
 1.904300+4 0.000000+0          3          0          0          02037 8 28    2
                                                                  2037 8  099999
 2.004400+4 4.357790+1          0          0          1          12037 8102    1
 2.004500+4 0.000000+0          3          0          0          02037 8102    2
                                                                  2037 8  099999
 2.004400+4 4.357790+1          0          0          1          12037 8103    1
 1.904400+4 0.000000+0          3          0          0          02037 8103    2
                                                                  2037 8  099999
 2.004400+4 4.357790+1          0          0          1          12037 8107    1
 1.804100+4 0.000000+0          3          0          0          02037 8107    2
                                                                  2037 8  099999
                                                                  2037 0  0    0
                                                                     0 0  0    0
                                                                    -1 0  0    0
