 JENDL/AD-2017  Ti- 47   pointwise at 293.6K                         0         0
 2.204700+4 4.654840+1          2          0          6          12228 1451    1
 0.000000+0 0.000000+0          0          0          0          62228 1451    2
 1.000000+0 2.000000+7          0          0         10          02228 1451    3
 2.936000+2 0.000000+0          1          0         93         222228 1451    4
 22-Ti- 47 KUR        EVAL-SEP88 K.KOBAYASHI(KUR),H.HASHIKURA(TOK)2228 1451    5
                      DIST-MAR18                       20131220   2228 1451    6
----JENDL/AD-2017     MATERIAL 2228                               2228 1451    7
-----INCIDENT NEUTRON DATA                                        2228 1451    8
------ENDF-6 FORMAT                                               2228 1451    9
                                                                  2228 1451   10
History                                                           2228 1451   11
2010-05 Evaluated for JENDL-4.0/1/.                               2228 1451   12
2013-12 File-making was performed for JENDL Activation File.      2228 1451   13
                                                                  2228 1451   14
MF= 1 General iformation                                          2228 1451   15
  MT=451 Descriptive data and directory                           2228 1451   16
                                                                  2228 1451   17
MF= 2 Resonance parameters                                        2228 1451   18
 MT=151  Resolved resonance parameters                            2228 1451   19
   Resolved parameters for MLBW formula were given in the energy  2228 1451   20
   region from 1.0e-5 eV to 100 keV.  Parameters were taken from  2228 1451   21
   ref./2/, for positive resonances.  Parameters for negative     2228 1451   22
   resonance were obtained so that the reproduced cross sections  2228 1451   23
   for both scattering and capture gave the 2200 m/s values of    2228 1451   24
   3.1+-0.2 and 1.7+-0.2 barns, respectively/2/.  The scattering  2228 1451   25
   radius was assumed to be 4.5 fermi instead of 3.6 fermi in     2228 1451   26
   ref./2/.                                                       2228 1451   27
   For JENDL-4, the resolved resonance parameters were modified   2228 1451   28
   by Kawano /3/.                                                 2228 1451   29
   The parameters should be used only for self-shielding          2228 1451   30
   calculations.                                                  2228 1451   31
                                                                  2228 1451   32
MF= 3 Neutron cross sections                                      2228 1451   33
  MT= 16 (n,2n) cross section                                     2228 1451   34
    Taken from JENDL-4.0.                                         2228 1451   35
                                                                  2228 1451   36
  MT= 22 (n,na) cross section                                     2228 1451   37
    Taken from JENDL-4.0.                                         2228 1451   38
                                                                  2228 1451   39
  MT= 28 (n,np) cross section                                     2228 1451   40
    Taken from JENDL-4.0.                                         2228 1451   41
                                                                  2228 1451   42
  MT=102 (n,g) cross section                                      2228 1451   43
    Taken from JENDL-4.0.                                         2228 1451   44
                                                                  2228 1451   45
  MT=103 (n,p) cross section                                      2228 1451   46
    Taken from JENDL-4.0.                                         2228 1451   47
                                                                  2228 1451   48
  MT=104 (n,d) cross section                                      2228 1451   49
    Taken from JENDL-4.0.                                         2228 1451   50
                                                                  2228 1451   51
  MT=105 (n,t) cross section                                      2228 1451   52
    Taken from JENDL-4.0.                                         2228 1451   53
                                                                  2228 1451   54
  MT=106 (n,3He) cross section                                    2228 1451   55
    Taken from JENDL-4.0.                                         2228 1451   56
                                                                  2228 1451   57
  MT=107 (n,a) cross section                                      2228 1451   58
    Taken from JENDL-4.0.                                         2228 1451   59
                                                                  2228 1451   60
  MT=111 (n,2p) cross section                                     2228 1451   61
    Taken from JENDL-4.0.                                         2228 1451   62
                                                                  2228 1451   63
MF= 8 Information on decay data                                   2228 1451   64
  MT= 16 (n,2n) reaction                                          2228 1451   65
                                                                  2228 1451   66
  MT= 22 (n,na) reaction                                          2228 1451   67
                                                                  2228 1451   68
  MT= 28 (n,np) reaction                                          2228 1451   69
                                                                  2228 1451   70
  MT=102 (n,g) reaction                                           2228 1451   71
                                                                  2228 1451   72
  MT=103 (n,p) reaction                                           2228 1451   73
                                                                  2228 1451   74
  MT=104 (n,d) reaction                                           2228 1451   75
                                                                  2228 1451   76
  MT=105 (n,t) reaction                                           2228 1451   77
                                                                  2228 1451   78
  MT=106 (n,3He) reaction                                         2228 1451   79
                                                                  2228 1451   80
  MT=107 (n,a) reaction                                           2228 1451   81
                                                                  2228 1451   82
  MT=111 (n,2p) reaction                                          2228 1451   83
                                                                  2228 1451   84
References                                                        2228 1451   85
 1) K.Shibata et al., J. Nucl. Sci. Technol. 48, 1 (2011).        2228 1451   86
 2) S.F.Mughabghab et al., " Neutron Cross Sections ", Vol.1,     2228 1451   87
     Part A (1981).                                               2228 1451   88
 3) T.Kawano, Private communication (2008).                       2228 1451   89
                                                                  2228 1451   90
 ***************** Program LINEAR (VERSION 2017-1) ***************2228 1451   91
 For All Data Greater than 1.0000E-10 barns in Absolute Value     2228 1451   92
 Data Linearized to Within an Accuracy of .100000000 per-cent     2228 1451   93
 ***************** Program SIGMA1 (VERSION 2017-1) ***************2228 1451   94
 Data Doppler Broadened to 293.600000 Kelvin                      2228 1451   95
 for All Data Greater than 1.0000E-10 barns in Absolute Value     2228 1451   96
 Data Linearized to Within an Accuracy of .100000000 per-cent     2228 1451   97
                                1        451        119          12228 1451   98
                                2        151         44          12228 1451   99
                                3         16          7          12228 1451  100
                                3         22          7          12228 1451  101
                                3         28         10          12228 1451  102
                                3        102       1907          12228 1451  103
                                3        103         71          12228 1451  104
                                3        104          8          12228 1451  105
                                3        105          7          12228 1451  106
                                3        106          7          12228 1451  107
                                3        107         10          12228 1451  108
                                3        111          8          12228 1451  109
                                8         16          2          12228 1451  110
                                8         22          2          12228 1451  111
                                8         28          2          12228 1451  112
                                8        102          2          12228 1451  113
                                8        103          2          12228 1451  114
                                8        104          2          12228 1451  115
                                8        105          2          12228 1451  116
                                8        106          2          12228 1451  117
                                8        107          2          12228 1451  118
                                8        111          2          12228 1451  119
                                                                  2228 1  099999
                                                                  2228 0  0    0
 2.204700+4 4.654840+1          0          0          1          02228 2151    1
 2.204700+4 1.000000+0          0          0          1          02228 2151    2
 1.000000-5 1.000000+5          1          2          0          02228 2151    3
 2.500000+0 3.600000-1          0          0          2          02228 2151    4
 4.654840+1 0.000000+0          0          0        192         322228 2151    5
-8.173000+3 2.000000+0 1.758600+3 1.757500+3 1.100000+0 0.000000+02228 2151    6
-2.272000+3 2.000000+0 1.257000+1 1.107000+1 1.500000+0 0.000000+02228 2151    7
 3.078000+3 3.000000+0 1.212700+2 1.200000+2 1.270000+0 0.000000+02228 2151    8
 8.128000+3 2.000000+0 6.080000+1 6.000000+1 8.000000-1 0.000000+02228 2151    9
 8.343000+3 2.000000+0 1.214000+2 1.200000+2 1.400000+0 0.000000+02228 2151   10
 1.054000+4 3.000000+0 5.950000+1 5.830000+1 1.200000+0 0.000000+02228 2151   11
 1.214000+4 3.000000+0 1.126000+2 1.115000+2 1.100000+0 0.000000+02228 2151   12
 1.216400+4 2.000000+0 2.240000+1 2.160000+1 8.000000-1 0.000000+02228 2151   13
 1.283000+4 2.000000+0 1.578000+2 1.560000+2 1.800000+0 0.000000+02228 2151   14
 1.638000+4 3.000000+0 3.181000+2 3.170000+2 1.100000+0 0.000000+02228 2151   15
 1.742000+4 2.000000+0 4.971000+1 4.800000+1 1.710000+0 0.000000+02228 2151   16
 1.909000+4 3.000000+0 2.064000+1 1.970000+1 9.400000-1 0.000000+02228 2151   17
 2.127000+4 2.000000+0 6.390000+1 6.240000+1 1.500000+0 0.000000+02228 2151   18
 2.712000+4 2.000000+0 1.211900+2 1.200000+2 1.190000+0 0.000000+02228 2151   19
 2.717000+4 3.000000+0 8.591900+2 8.580000+2 1.190000+0 0.000000+02228 2151   20
 3.023000+4 2.000000+0 7.519000+1 7.400000+1 1.190000+0 0.000000+02228 2151   21
 3.261000+4 2.000000+0 5.991600+2 5.980000+2 1.160000+0 0.000000+02228 2151   22
 3.812000+4 3.000000+0 8.660000+1 8.600000+1 6.000000-1 0.000000+02228 2151   23
 4.055000+4 3.000000+0 6.450000+2 6.430000+2 2.000000+0 0.000000+02228 2151   24
 4.106000+4 2.000000+0 5.786000+1 5.760000+1 2.600000-1 0.000000+02228 2151   25
 4.236000+4 2.000000+0 6.020000+2 6.000000+2 2.000000+0 0.000000+02228 2151   26
 4.756000+4 3.000000+0 6.872000+2 6.860000+2 1.200000+0 0.000000+02228 2151   27
 4.933000+4 3.000000+0 2.847000+2 2.830000+2 1.700000+0 0.000000+02228 2151   28
 5.134000+4 3.000000+0 1.981000+2 1.970000+2 1.100000+0 0.000000+02228 2151   29
 5.539000+4 3.000000+0 2.581900+2 2.570000+2 1.190000+0 0.000000+02228 2151   30
 6.045000+4 2.000000+0 9.010000+1 8.880000+1 1.300000+0 0.000000+02228 2151   31
 6.188000+4 2.000000+0 2.134000+2 2.120000+2 1.400000+0 0.000000+02228 2151   32
 6.340000+4 3.000000+0 9.740000+1 9.690000+1 5.000000-1 0.000000+02228 2151   33
 6.380000+4 3.000000+0 5.429000+1 5.310000+1 1.190000+0 0.000000+02228 2151   34
 7.188000+4 3.000000+0 5.721900+2 5.710000+2 1.190000+0 0.000000+02228 2151   35
 7.380000+4 2.000000+0 1.007000+2 1.000000+2 7.000000-1 0.000000+02228 2151   36
 7.475000+4 2.000000+0 1.303200+2 1.280000+2 2.320000+0 0.000000+02228 2151   37
 4.654840+1 0.000000+0          1          0         36          62228 2151   38
 4.192000+3 3.000000+0 1.830000+0 1.300000+0 5.300000-1 0.000000+02228 2151   39
 2.193000+4 3.000000+0 8.830000-1 8.300000-2 8.000000-1 0.000000+02228 2151   40
 2.322000+4 3.000000+0 7.300000-1 9.000000-2 6.400000-1 0.000000+02228 2151   41
 2.376000+4 2.000000+0 2.340000-1 2.400000-2 2.100000-1 0.000000+02228 2151   42
 2.414000+4 2.000000+0 1.784000+1 1.700000+1 8.400000-1 0.000000+02228 2151   43
 3.704000+4 4.000000+0 6.004800+2 6.000000+2 4.800000-1 0.000000+02228 2151   44
                                                                  2228 2  099999
                                                                  2228 0  0    0
 2.204700+4 4.654840+1          0          0          0          02228 3 16    1
-8.875080+6-8.875080+6          0          0          1         122228 3 16    2
         12          2          0          0          0          02228 3 16    3
 9.065750+6 0.000000+0 1.000000+7 1.768780-2 1.100000+7 7.307480-22228 3 16    4
 1.200000+7 1.511100-1 1.300000+7 2.184370-1 1.400000+7 2.589480-12228 3 16    5
 1.500000+7 2.722180-1 1.600000+7 2.678750-1 1.700000+7 2.631480-12228 3 16    6
 1.800000+7 2.618040-1 1.900000+7 2.626390-1 2.000000+7 2.633920-12228 3 16    7
                                                                  2228 3  099999
 2.204700+4 4.654840+1          0          0          0          02228 3 22    1
-8.955130+6-8.955130+6          0          0          1         122228 3 22    2
         12          2          0          0          0          02228 3 22    3
 9.147520+6 0.000000+0 1.000000+7 0.000000+0 1.100000+7 4.86570-102228 3 22    4
 1.200000+7 2.278080-7 1.300000+7 1.064620-5 1.400000+7 2.857680-42228 3 22    5
 1.500000+7 1.868560-3 1.600000+7 7.335450-3 1.700000+7 1.650020-22228 3 22    6
 1.800000+7 2.689920-2 1.900000+7 3.610220-2 2.000000+7 4.305250-22228 3 22    7
                                                                  2228 3  099999
 2.204700+4 4.654840+1          0          0          0          02228 3 28    1
-1.046000+7-1.046000+7          0          0          1         192228 3 28    2
         19          2          0          0          0          02228 3 28    3
 1.068470+7 0.000000+0 1.150000+7 0.000000+0 1.200000+7 2.000000-32228 3 28    4
 1.250000+7 3.000000-3 1.300000+7 9.000000-3 1.350000+7 1.840000-22228 3 28    5
 1.400000+7 3.640000-2 1.450000+7 5.850000-2 1.500000+7 8.030000-22228 3 28    6
 1.550000+7 9.883000-2 1.600000+7 1.150000-1 1.650000+7 1.300000-12228 3 28    7
 1.700000+7 1.465000-1 1.750000+7 1.600000-1 1.800000+7 1.700000-12228 3 28    8
 1.850000+7 1.770000-1 1.900000+7 1.838000-1 1.950000+7 1.871000-12228 3 28    9
 2.000000+7 1.900000-1                                            2228 3 28   10
                                                                  2228 3  099999
 2.204700+4 4.654840+1          0          0          0          02228 3102    1
 1.162740+7 1.162740+7          0          0          1       57112228 3102    2
       5711          2          0          0          0          02228 3102    3
 1.000000-5 8.178374+1 1.103037-5 7.787032+1 1.216691-5 7.414415+12228 3102    4
 1.342055-5 7.059629+1 1.480336-5 6.721820+1 1.632865-5 6.400175+12228 3102    5
 1.801111-5 6.093921+1 1.986691-5 5.802321+1 2.191394-5 5.524675+12228 3102    6
 2.417189-5 5.260314+1 2.666248-5 5.008604+1 2.940971-5 4.768938+12228 3102    7
 3.243999-5 4.540740+1 3.578251-5 4.323461+1 3.946943-5 4.116580+12228 3102    8
 4.353624-5 3.919598+1 4.802208-5 3.732042+1 5.297013-5 3.553460+12228 3102    9
 5.842801-5 3.383424+1 6.444825-5 3.221524+1 7.108881-5 3.067371+12228 3102   10
 7.841358-5 2.920595+1 8.649308-5 2.780842+1 9.540506-5 2.647776+12228 3102   11
 1.052353-4 2.521078+1 1.160784-4 2.400442+1 1.280388-4 2.285579+12228 3102   12
 1.412315-4 2.176212+1 1.557836-4 2.072078+1 1.718351-4 1.972927+12228 3102   13
 1.895404-4 1.878521+1 2.090701-4 1.788632+1 2.306120-4 1.703045+12228 3102   14
 2.543736-4 1.621552+1 2.805835-4 1.543960+1 3.094939-4 1.470080+12228 3102   15
 3.413832-4 1.399735+1 3.765583-4 1.332757+1 4.153577-4 1.268983+12228 3102   16
 4.581549-4 1.208261+1 5.053618-4 1.150445+1 5.574328-4 1.095395+12228 3102   17
 6.148689-4 1.042979+1 6.782232-4 9.930719+0 7.481052-4 9.455526+02228 3102   18
 8.251877-4 9.003071+0 9.102125-4 8.572266+0 1.003998-3 8.162076+02228 3102   19
 1.107447-3 7.771513+0 1.221555-3 7.399639+0 1.347420-3 7.045560+02228 3102   20
 1.486254-3 6.708424+0 1.639393-3 6.387420+0 1.808311-3 6.081777+02228 3102   21
 1.994634-3 5.790759+0 2.200155-3 5.513666+0 2.426853-3 5.249832+02228 3102   22
 2.676908-3 4.998623+0 2.952729-3 4.759435+0 3.256969-3 4.531692+02228 3102   23
 3.592557-3 4.314847+0 3.962723-3 4.108378+0 4.371030-3 3.911789+02228 3102   24
 4.821407-3 3.724606+0 5.318191-3 3.546381+0 5.866161-3 3.376684+02228 3102   25
 6.470592-3 3.215107+0 7.137302-3 3.061261+0 7.872708-3 2.914778+02228 3102   26
 8.683888-3 2.775304+0 9.578649-3 2.642504+0 1.056560-2 2.516060+02228 3102   27
 1.165425-2 2.395668+0 1.285507-2 2.281042+0 1.417962-2 2.171908+02228 3102   28
 1.564064-2 2.068008+0 1.725221-2 1.969098+0 1.902982-2 1.874942+02228 3102   29
 2.099059-2 1.785315+0 2.315340-2 1.699992+0 2.524188-2 1.628244+02228 3102   30
 2.530000-2 1.626375+0 2.790683-2 1.548646+0 3.078227-2 1.474599+02228 3102   31
 3.395398-2 1.404045+0 3.745250-2 1.336835+0 4.131149-2 1.272829+02228 3102   32
 4.556810-2 1.211919+0 5.026329-2 1.153976+0 5.544227-2 1.098831+02228 3102   33
 6.115487-2 1.046286+0 6.745608-2 9.961929-1 7.440655-2 9.484666-12228 3102   34
 8.207318-2 9.030306-1 9.052975-2 8.598077-1 9.985766-2 8.187291-12228 3102   35
 0.11014669 7.796493-1 0.12149586 7.423614-1 0.13401443 7.067916-12228 3102   36
 0.14782287 6.729195-1 0.16305408 6.406789-1 0.17985468 6.099905-12228 3102   37
 0.19838636 5.807828-1 0.21882748 5.530297-1 0.24137480 5.266615-12228 3102   38
 0.26624532 5.014594-1 0.29367842 4.774294-1 0.32393815 4.545559-12228 3102   39
 0.35731575 4.327837-1 0.39413248 4.120640-1 0.43474269 3.924322-12228 3102   40
 0.48291995 3.723876-1 0.53267855 3.545382-1 0.58756412 3.375493-12228 3102   41
 0.64810494 3.213790-1 0.71488369 3.059873-1 0.78854313 2.913398-12228 3102   42
 0.86979221 2.775179-1 0.95941294 2.642237-1 1.05826793 2.515605-12228 3102   43
 1.16730863 2.395064-1 1.28758455 2.280317-1 1.42025334 2.171147-12228 3102   44
 1.56659191 2.067200-1 1.72800876 1.968266-1 1.89270617 1.881523-12228 3102   45
 2.07320270 1.797649-1 2.28681919 1.711579-1 2.52244606 1.629518-12228 3102   46
 2.78235121 1.551540-1 3.06903619 1.477282-1 3.38526031 1.406636-12228 3102   47
 3.70791123 1.344523-1 4.08996309 1.280250-1 4.47999942 1.223298-12228 3102   48
 4.90699049 1.168907-1 5.41259182 1.112832-1 5.97028877 1.059737-12228 3102   49
 6.58544912 1.009014-1 7.26399371 9.608966-2 8.12549476 9.088553-22228 3102   50
 8.90037660 8.685028-2 9.74867612 8.299819-2 10.6783515 7.930166-22228 3102   51
 11.7786163 7.551636-2 12.9922490 7.190830-2 14.3309306 6.848429-22228 3102   52
 16.1428511 6.455918-2 17.6823022 6.170246-2 19.3676116 5.897731-22228 3102   53
 21.0659881 5.656286-2 23.2365632 5.385995-2 25.6307878 5.130844-22228 3102   54
 28.2717060 4.887504-2 31.8477807 4.607347-2 35.3753485 4.375428-22228 3102   55
 38.4774687 4.197607-2 41.8516187 4.027205-2 45.8427676 3.849614-22228 3102   56
 50.9204674 3.656515-2 55.3857636 3.509021-2 60.2426287 3.367208-22228 3102   57
 66.4498454 3.209522-2 73.2966348 3.059353-2 79.1695743 2.948778-22228 3102   58
 85.5088910 2.839813-2 93.6633836 2.717725-2 101.876874 2.610052-22228 3102   59
 110.034424 2.515429-2 119.683516 2.416358-2 132.015341 2.306425-22228 3102   60
 141.594333 2.232808-2 155.097373 2.138854-2 169.879784 2.050071-22228 3102   61
 186.080245 1.966061-2 202.397916 1.892322-2 220.146509 1.822164-22228 3102   62
 241.128786 1.749685-2 265.973961 1.676757-2 291.338372 1.612914-22228 3102   63
 323.607995 1.544284-2 356.951575 1.484831-2 388.253223 1.437270-22228 3102   64
 421.712036 1.393799-2 458.692630 1.352880-2 504.848485 1.310247-22228 3102   65
 556.866533 1.271908-2 605.699039 1.243857-2 663.461082 1.217370-22228 3102   66
 723.297462 1.197434-2 784.787913 1.183755-2 853.607204 1.175754-22228 3102   67
 895.140000 1.173651-2 969.259265 1.177117-2 1039.58842 1.186919-22228 3102   68
 1099.94494 1.200377-2 1161.86915 1.219254-2 1215.22107 1.239660-22228 3102   69
 1276.71152 1.268452-2 1340.90640 1.304863-2 1389.95621 1.337041-22228 3102   70
 1449.61944 1.382531-2 1516.64900 1.441975-2 1570.74786 1.498556-22228 3102   71
 1622.76000 1.559206-2 1695.26984 1.658604-2 1744.03000 1.735395-22228 3102   72
 1804.66500 1.845153-2 1855.94535 1.952407-2 1895.61800 2.044798-22228 3102   73
 1935.92230 2.150241-2 1976.98652 2.269501-2 2016.88800 2.398438-22228 3102   74
 2045.34266 2.500440-2 2074.19876 2.613031-2 2103.46197 2.737592-22228 3102   75
 2133.13804 2.875879-2 2163.23277 3.029995-2 2193.75209 3.202470-22228 3102   76
 2224.70199 3.396365-2 2253.36400 3.594568-2 2280.65000 3.805064-22228 3102   77
 2301.87200 3.982526-2 2326.12600 4.204975-2 2350.38000 4.449518-22228 3102   78
 2374.63400 4.719320-2 2398.88800 5.017965-2 2423.14200 5.349700-22228 3102   79
 2447.39600 5.719267-2 2465.58651 6.025854-2 2483.77700 6.358804-22228 3102   80
 2501.96751 6.725070-2 2520.15800 7.124483-2 2538.34850 7.566509-22228 3102   81
 2556.53900 8.051296-2 2574.72950 8.591479-2 2592.92000 9.187782-22228 3102   82
 2605.04700 9.624262-2 2617.17400 1.009454-1 2629.30100 1.060219-12228 3102   83
 2641.42800 1.115127-1 2653.55500 1.174640-1 2665.68200 1.239287-12228 3102   84
 2677.80900 1.309672-1 2689.93600 1.386493-1 2702.06300 1.470556-12228 3102   85
 2714.19000 1.562796-1 2726.31700 1.664301-1 2738.44400 1.776346-12228 3102   86
 2750.57100 1.900221-1 2759.66651 2.002093-1 2768.76200 2.112618-12228 3102   87
 2777.85700 2.232935-1 2786.95200 2.363800-1 2796.04751 2.506941-12228 3102   88
 2805.14300 2.663406-1 2814.23801 2.835447-1 2823.33300 3.024501-12228 3102   89
 2832.42801 3.233598-1 2841.52300 3.464776-1 2850.61850 3.722137-12228 3102   90
 2857.44013 3.934134-1 2864.26176 4.164575-1 2871.08339 4.415712-12228 3102   91
 2877.90500 4.690046-1 2884.72626 4.990496-1 2891.54751 5.320288-12228 3102   92
 2898.36876 5.683170-1 2905.19000 6.083323-1 2912.01126 6.525740-12228 3102   93
 2918.83276 7.016317-1 2925.65439 7.562035-1 2932.47600 8.171201-12228 3102   94
 2938.16064 8.732510-1 2943.84526 9.349499-1 2949.52988 1.003230+02228 3102   95
 2955.21450 1.078704+0 2960.89913 1.162300+0 2966.58351 1.255086+02228 3102   96
 2972.26776 1.358236+0 2977.95200 1.473117+0 2981.74176 1.556944+02228 3102   97
 2985.53150 1.647114+0 2989.32126 1.744146+0 2993.11100 1.848542+02228 3102   98
 2996.90076 1.960838+0 3000.69051 2.081589+0 3004.48026 2.211300+02228 3102   99
 3008.27000 2.350434+0 3013.49976 2.558687+0 3018.72951 2.786198+02228 3102  100
 3024.03501 3.036923+0 3029.49201 3.314469+0 3036.76800 3.709891+02228 3102  101
 3050.10800 4.458116+0 3056.17150 4.770062+0 3060.71913 4.973490+02228 3102  102
 3065.26676 5.139416+0 3068.29851 5.224482+0 3071.33026 5.286324+02228 3102  103
 3074.36200 5.323196+0 3077.15100 5.334173+0 3080.72888 5.315213+02228 3102  104
 3083.76064 5.270831+0 3086.79239 5.201801+0 3089.82413 5.109966+02228 3102  105
 3094.37176 4.934882+0 3098.91939 4.723658+0 3103.46700 4.486600+02228 3102  106
 3115.13863 3.826299+0 3122.26339 3.427558+0 3127.72076 3.138611+02228 3102  107
 3133.02651 2.876033+0 3138.02900 2.646828+0 3143.03151 2.435889+02228 3102  108
 3146.59376 2.296524+0 3150.38326 2.157936+0 3154.17276 2.028898+02228 3102  109
 3157.96226 1.908883+0 3161.75188 1.797359+0 3165.54164 1.693789+02228 3102  110
 3169.33139 1.597609+0 3173.12113 1.508309+0 3176.91088 1.425366+02228 3102  111
 3180.70064 1.348283+0 3186.38526 1.242694+0 3192.06988 1.147895+02228 3102  112
 3197.75450 1.062621+0 3203.43913 9.857844-1 3207.60776 9.342231-12228 3102  113
 3212.15526 8.824080-1 3216.70276 8.343802-1 3221.25026 7.898756-12228 3102  114
 3225.79776 7.485691-1 3230.34526 7.101992-1 3237.16651 6.577645-12228 3102  115
 3243.98788 6.106661-1 3250.80951 5.682283-1 3257.63113 5.298732-12228 3102  116
 3264.45276 4.951221-1 3271.27439 4.635591-1 3278.09600 4.348290-12228 3102  117
 3284.91726 4.086135-1 3291.73851 3.846358-1 3298.55988 3.626465-12228 3102  118
 3305.38150 3.424368-1 3312.20313 3.238242-1 3319.02451 3.066481-12228 3102  119
 3328.11951 2.857526-1 3337.21476 2.668788-1 3346.31026 2.497757-12228 3102  120
 3355.40551 2.342371-1 3364.50051 2.200789-1 3373.59551 2.071463-12228 3102  121
 3382.69051 1.953019-1 3391.78576 1.844314-1 3400.88126 1.744312-12228 3102  122
 3411.49251 1.638585-1 3417.55600 1.581046-1 3429.68300 1.475901-12228 3102  123
 3441.81000 1.380807-1 3453.93700 1.294538-1 3466.06401 1.216050-12228 3102  124
 3478.19100 1.144446-1 3490.31801 1.078953-1 3502.44500 1.018906-12228 3102  125
 3514.57200 9.637223-2 3526.69900 9.128992-2 3538.82600 8.659944-22228 3102  126
 3550.95300 8.226208-2 3563.08000 7.824374-2 3575.20700 7.451433-22228 3102  127
 3593.39751 6.941819-2 3611.58801 6.480795-2 3629.77851 6.066964-22228 3102  128
 3647.96900 5.690316-2 3666.15951 5.350086-2 3684.35000 5.038810-22228 3102  129
 3702.54051 4.756104-2 3720.73100 4.496311-2 3738.92150 4.261374-22228 3102  130
 3757.11200 4.041208-2 3781.36600 3.777320-2 3805.62000 3.540804-22228 3102  131
 3829.87400 3.328519-2 3854.12800 3.137760-2 3876.86576 2.977773-22228 3102  132
 3902.63600 2.814238-2 3926.89000 2.678860-2 3949.62801 2.567960-22228 3102  133
 3972.36600 2.471972-2 3987.52500 2.417948-2 4002.68400 2.372783-22228 3102  134
 4017.84300 2.338120-2 4033.00100 2.316292-2 4044.37000 2.310564-22228 3102  135
 4053.84451 2.315782-2 4063.31900 2.331372-2 4070.89801 2.353734-22228 3102  136
 4078.47700 2.387249-2 4086.05651 2.434483-2 4091.74113 2.481609-22228 3102  137
 4097.42576 2.542025-2 4103.11039 2.618648-2 4108.79500 2.715969-22228 3102  138
 4112.58476 2.795331-2 4116.37450 2.889050-2 4120.16426 3.000152-22228 3102  139
 4123.95400 3.131861-2 4126.79633 3.247534-2 4129.63864 3.381394-22228 3102  140
 4132.48095 3.536485-2 4135.32326 3.717080-2 4137.21813 3.854338-22228 3102  141
 4139.11300 4.007400-2 4141.59983 4.236268-2 4143.25770 4.409364-22228 3102  142
 4144.91558 4.601701-2 4146.57345 4.816321-2 4148.23133 5.056551-22228 3102  143
 4149.88920 5.326468-2 4151.54707 5.631385-2 4152.96820 5.925372-22228 3102  144
 4154.15258 6.196893-2 4155.33695 6.495900-2 4156.52133 6.826179-22228 3102  145
 4157.70570 7.192206-2 4158.89008 7.599286-2 4160.07445 8.053752-22228 3102  146
 4161.25882 8.563220-2 4162.26551 9.046317-2 4163.09451 9.483674-22228 3102  147
 4163.92351 9.961404-2 4164.75251 1.048459-1 4165.58151 1.105920-12228 3102  148
 4166.41051 1.169225-1 4167.23951 1.239208-1 4168.06851 1.316857-12228 3102  149
 4168.80038 1.392714-1 4169.43514 1.464811-1 4170.06989 1.543518-12228 3102  150
 4170.70464 1.629670-1 4171.33939 1.724242-1 4171.97414 1.828386-12228 3102  151
 4172.60889 1.943463-1 4173.24363 2.071090-1 4173.79845 2.194432-12228 3102  152
 4174.27333 2.309934-1 4174.74820 2.435766-1 4175.22308 2.573218-12228 3102  153
 4175.69795 2.723789-1 4176.17283 2.889236-1 4176.64770 3.071627-12228 3102  154
 4177.12257 3.273418-1 4177.54301 3.470614-1 4177.90901 3.658405-12228 3102  155
 4178.27501 3.863165-1 4178.64101 4.087084-1 4179.00701 4.332743-12228 3102  156
 4179.37301 4.603190-1 4179.73901 4.902066-1 4180.10501 5.233755-12228 3102  157
 4180.43670 5.567141-1 4180.73408 5.896620-1 4181.03145 6.259348-12228 3102  158
 4181.32883 6.660394-1 4181.62620 7.105929-1 4181.92358 7.603533-12228 3102  159
 4182.14661 8.016477-1 4182.36963 8.468734-1 4182.59267 8.966038-12228 3102  160
 4182.78138 9.427001-1 4183.01014 1.004248+0 4183.23889 1.072980+02228 3102  161
 4183.41046 1.129974+0 4183.58201 1.192296+0 4183.75358 1.260656+02228 3102  162
 4183.92514 1.335835+0 4184.09670 1.418749+0 4184.26826 1.510429+02228 3102  163
 4184.43982 1.612059+0 4184.58851 1.709204+0 4184.72577 1.807230+02228 3102  164
 4184.86301 1.914115+0 4185.00027 2.030798+0 4185.13751 2.158242+02228 3102  165
 4185.27476 2.297537+0 4185.41201 2.449829+0 4185.54927 2.616369+02228 3102  166
 4185.68651 2.798457+0 4185.82376 2.997505+0 4185.96100 3.214952+02228 3102  167
 4186.08111 3.421581+0 4186.20120 3.644527+0 4186.32130 3.884913+02228 3102  168
 4186.44139 4.143822+0 4186.56148 4.422402+0 4186.68158 4.721744+02228 3102  169
 4186.80167 5.042973+0 4186.92176 5.387105+0 4187.08188 5.883459+02228 3102  170
 4187.24200 6.424681+0 4187.41358 7.056762+0 4187.58514 7.744705+02228 3102  171
 4187.75670 8.490069+0 4187.92826 9.293605+0 4188.09982 1.015537+12228 3102  172
 4188.31133 1.129636+1 4188.51708 1.248597+1 4188.77426 1.407386+12228 3102  173
 4189.06013 1.594992+1 4189.54088 1.927289+1 4190.03276 2.268629+12228 3102  174
 4190.28426 2.434348+1 4190.51276 2.574984+1 4190.73001 2.696899+12228 3102  175
 4190.93601 2.799432+1 4191.13276 2.883533+1 4191.32026 2.949611+12228 3102  176
 4191.53301 3.006464+1 4191.74351 3.042526+1 4191.91000 3.056259+12228 3102  177
 4192.00000 3.058152+1 4192.21951 3.046454+1 4192.41151 3.017475+12228 3102  178
 4192.60351 2.971574+1 4192.78651 2.912869+1 4192.97876 2.836586+12228 3102  179
 4193.18026 2.742076+1 4193.39551 2.626733+1 4193.62451 2.490459+12228 3102  180
 4193.87601 2.328415+1 4194.36713 1.990523+1 4194.84788 1.656267+12228 3102  181
 4195.11101 1.480530+1 4195.38551 1.306774+1 4195.56851 1.197597+12228 3102  182
 4195.77438 1.081909+1 4195.94595 9.916236+0 4196.11751 9.070994+02228 3102  183
 4196.28908 8.283867+0 4196.46063 7.554787+0 4196.57500 7.100494+02228 3102  184
 4196.71226 6.588054+0 4196.84951 6.110454+0 4196.98676 5.666435+02228 3102  185
 4197.12400 5.254684+0 4197.26126 4.873652+0 4197.39851 4.521834+02228 3102  186
 4197.53576 4.197565+0 4197.67300 3.899223+0 4197.81026 3.625078+02228 3102  187
 4197.94751 3.373559+0 4198.08477 3.143015+0 4198.22201 2.931896+02228 3102  188
 4198.35926 2.738667+0 4198.49651 2.561904+0 4198.63377 2.400227+02228 3102  189
 4198.77101 2.252369+0 4198.90827 2.117087+0 4199.04551 1.993291+02228 3102  190
 4199.19420 1.870908+0 4199.36576 1.743319+0 4199.53733 1.628704+02228 3102  191
 4199.70889 1.525557+0 4199.88046 1.432521+0 4200.05200 1.348413+02228 3102  192
 4200.22358 1.272160+0 4200.39514 1.202857+0 4200.56670 1.139685+02228 3102  193
 4200.73826 1.081941+0 4200.96700 1.012330+0 4201.19005 9.514952-12228 3102  194
 4201.41308 8.966420-1 4201.63611 8.469574-1 4201.85914 8.017670-12228 3102  195
 4202.08217 7.604996-1 4202.30520 7.226785-1 4202.60258 6.769188-12228 3102  196
 4202.89995 6.357751-1 4203.19732 5.986001-1 4203.52326 5.617862-12228 3102  197
 4203.87776 5.257694-1 4204.23226 4.933623-1 4204.58676 4.640731-12228 3102  198
 4204.94126 4.374955-1 4205.29576 4.132906-1 4205.65026 3.911738-12228 3102  199
 4206.00476 3.709032-1 4206.41076 3.496909-1 4206.86826 3.280380-12228 3102  200
 4207.32576 3.084666-1 4207.78326 2.907119-1 4208.24076 2.745509-12228 3102  201
 4208.69826 2.597945-1 4209.15576 2.462818-1 4209.61326 2.338745-12228 3102  202
 4210.12795 2.210895-1 4210.69983 2.081712-1 4211.27170 1.964446-12228 3102  203
 4211.84358 1.857657-1 4212.41545 1.760120-1 4212.98733 1.670786-12228 3102  204
 4213.55920 1.588752-1 4214.41700 1.477709-1 4215.16051 1.391614-12228 3102  205
 4215.90401 1.313677-1 4216.64751 1.242878-1 4217.39101 1.178355-12228 3102  206
 4218.13451 1.119373-1 4218.87801 1.065307-1 4219.99326 9.922757-22228 3102  207
 4220.87970 9.402563-2 4221.90908 8.856438-2 4222.93845 8.364670-22228 3102  208
 4223.96783 7.920233-2 4224.99720 7.517193-2 4226.02658 7.150520-22228 3102  209
 4227.05595 6.815927-2 4228.60000 6.366310-2 4229.80095 6.054225-22228 3102  210
 4231.00189 5.770686-2 4232.60314 5.431338-2 4234.20439 5.130105-22228 3102  211
 4235.80564 4.861162-2 4237.40689 4.619724-2 4239.00814 4.402120-22228 3102  212
 4240.60938 4.205384-2 4242.43938 4.002821-2 4244.49814 3.799450-22228 3102  213
 4246.55689 3.618307-2 4248.61564 3.456198-2 4250.67439 3.310485-22228 3102  214
 4253.76251 3.117954-2 4256.85063 2.951490-2 4260.16751 2.796723-22228 3102  215
 4263.59876 2.658270-2 4267.03000 2.536900-2 4270.46126 2.430088-22228 3102  216
 4273.89251 2.335628-2 4278.46751 2.225600-2 4283.04251 2.130751-22228 3102  217
 4287.61751 2.048201-2 4292.19251 1.975161-2 4296.84888 1.909320-22228 3102  218
 4303.95550 1.822252-2 4311.06213 1.748526-2 4318.24901 1.683989-22228 3102  219
 4327.88501 1.610178-2 4335.91513 1.557404-2 4345.55151 1.502295-22228 3102  220
 4358.40000 1.439372-2 4369.80001 1.391156-2 4386.90001 1.329355-22228 3102  221
 4404.00000 1.276343-2 4421.10001 1.230441-2 4449.60000 1.164771-22228 3102  222
 4472.40000 1.119503-2 4495.20000 1.079104-2 4529.40001 1.025772-22228 3102  223
 4563.60000 9.784684-3 4586.40000 9.500275-3 4632.00000 8.987374-32228 3102  224
 4677.60000 8.535626-3 4723.20000 8.133878-3 4768.80000 7.773894-32228 3102  225
 4814.40000 7.449533-3 4860.00000 7.156041-3 4905.60000 6.889625-32228 3102  226
 4951.20000 6.647193-3 5019.60001 6.324930-3 5088.00000 6.040156-32228 3102  227
 5148.80000 5.818857-3 5209.60000 5.622563-3 5270.40000 5.448723-32228 3102  228
 5331.20000 5.295161-3 5392.00000 5.160063-3 5452.80000 5.041911-32228 3102  229
 5544.00000 4.895292-3 5635.20000 4.777543-3 5726.40001 4.692177-32228 3102  230
 5817.60000 4.631959-3 5908.80001 4.601230-3 5969.60000 4.593375-32228 3102  231
 6053.82031 4.604681-3 6121.60000 4.629408-3 6212.80001 4.690211-32228 3102  232
 6304.00000 4.778838-3 6364.80000 4.857514-3 6425.60000 4.952469-32228 3102  233
 6486.40000 5.065207-3 6547.20000 5.197565-3 6608.00000 5.351771-32228 3102  234
 6668.80000 5.530545-3 6729.60000 5.737199-3 6790.40000 5.975789-32228 3102  235
 6851.20000 6.251300-3 6912.00000 6.569658-3 6957.60001 6.842465-32228 3102  236
 7003.20000 7.145399-3 7048.80001 7.488508-3 7094.40000 7.871138-32228 3102  237
 7140.00000 8.307512-3 7185.60000 8.797510-3 7216.00000 9.163031-32228 3102  238
 7246.40000 9.562613-3 7276.80000 1.000007-2 7307.20000 1.048073-22228 3102  239
 7337.60000 1.101078-2 7368.00000 1.159641-2 7398.40000 1.224662-22228 3102  240
 7428.80000 1.297019-2 7459.20000 1.377907-2 7489.60000 1.468738-22228 3102  241
 7512.40000 1.544289-2 7535.20000 1.627373-2 7558.00000 1.718910-22228 3102  242
 7580.80000 1.820116-2 7603.60000 1.932445-2 7626.40000 2.057640-22228 3102  243
 7649.20000 2.197817-2 7666.30001 2.314325-2 7683.40001 2.442009-22228 3102  244
 7702.02001 2.595510-2 7716.46001 2.726598-2 7734.32000 2.904937-22228 3102  245
 7751.04001 3.090968-2 7769.28000 3.318497-2 7781.44001 3.486633-22228 3102  246
 7793.60000 3.669866-2 7805.76001 3.870171-2 7817.92000 4.089878-22228 3102  247
 7830.08000 4.331749-2 7842.24000 4.599076-2 7854.40001 4.895828-22228 3102  248
 7866.56000 5.226816-2 7875.68001 5.501031-2 7884.80001 5.800746-22228 3102  249
 7893.92001 6.129530-2 7903.04000 6.491498-2 7912.16001 6.891707-22228 3102  250
 7921.28001 7.336090-2 7930.40001 7.832028-2 7939.52000 8.388352-22228 3102  251
 7948.64001 9.016219-2 7954.72001 9.481154-2 7960.80001 9.988838-22228 3102  252
 7966.50001 1.050875-1 7971.82001 1.103713-1 7977.14001 1.161029-12228 3102  253
 7982.46001 1.223794-1 7987.78001 1.292748-1 7993.10001 1.368626-12228 3102  254
 7998.42001 1.452436-1 8003.74001 1.545381-1 8009.06001 1.648905-12228 3102  255
 8014.38001 1.764748-1 8018.37001 1.860969-1 8022.36001 1.966356-12228 3102  256
 8026.35001 2.082143-1 8030.34001 2.209775-1 8034.33001 2.350953-12228 3102  257
 8038.32000 2.507680-1 8042.31001 2.682335-1 8046.30001 2.877742-12228 3102  258
 8050.29001 3.097275-1 8052.95001 3.258996-1 8055.61001 3.434609-12228 3102  259
 8058.27001 3.625682-1 8060.93001 3.833993-1 8063.59001 4.061527-12228 3102  260
 8066.25001 4.310421-1 8068.91001 4.582966-1 8071.19001 4.837617-12228 3102  261
 8074.04001 5.187015-1 8076.89001 5.575269-1 8079.74001 6.007012-12228 3102  262
 8082.59001 6.487471-1 8085.44000 7.022383-1 8088.17601 7.592705-12228 3102  263
 8090.91201 8.224000-1 8093.64801 8.921041-1 8096.38401 9.687487-12228 3102  264
 8099.12001 1.052514+0 8101.55201 1.132853+0 8104.59201 1.240383+02228 3102  265
 8109.15201 1.412447+0 8113.71201 1.586587+0 8116.75201 1.694560+02228 3102  266
 8119.03201 1.766207+0 8121.31200 1.826269+0 8123.59201 1.871740+02228 3102  267
 8125.18801 1.893543+0 8126.86001 1.906763+0 8128.18200 1.909986+02228 3102  268
 8130.12801 1.903036+0 8131.64801 1.888158+0 8133.92801 1.851368+02228 3102  269
 8136.20801 1.799273+0 8138.48801 1.734773+0 8140.76800 1.661078+02228 3102  270
 8145.32801 1.498644+0 8149.88800 1.333479+0 8153.15601 1.221514+02228 3102  271
 8155.60701 1.143178+0 8158.05801 1.070403+0 8160.50901 1.003434+02228 3102  272
 8162.96000 9.422542-1 8165.81001 8.781543-1 8168.66001 8.211904-12228 3102  273
 8171.51001 7.708079-1 8174.36001 7.264171-1 8177.21001 6.874355-12228 3102  274
 8180.06001 6.533139-1 8182.91001 6.235484-1 8185.76001 5.976854-12228 3102  275
 8188.61001 5.753217-1 8191.46001 5.561037-1 8194.36626 5.394271-12228 3102  276
 8197.38501 5.249277-1 8200.40376 5.130296-1 8203.42251 5.034927-12228 3102  277
 8207.44751 4.941261-1 8211.35701 4.883746-1 8215.15101 4.856772-12228 3102  278
 8217.04800 4.853324-1 8221.60051 4.870934-1 8226.15301 4.923420-12228 3102  279
 8231.08476 5.018161-1 8234.87826 5.117354-1 8238.67176 5.239375-12228 3102  280
 8242.46526 5.384547-1 8247.20738 5.599513-1 8251.47545 5.825240-12228 3102  281
 8255.74351 6.082696-1 8260.01158 6.373536-1 8264.27963 6.699355-12228 3102  282
 8268.52870 7.060084-1 8272.73976 7.454902-1 8276.95083 7.888141-12228 3102  283
 8281.16189 8.360525-1 8283.96926 8.697337-1 8289.58400 9.423109-12228 3102  284
 8295.04701 1.019172+0 8303.24151 1.143688+0 8314.47101 1.320594+02228 3102  285
 8320.54101 1.409879+0 8325.09351 1.468962+0 8329.64601 1.518022+02228 3102  286
 8332.68101 1.543772+0 8335.71600 1.563110+0 8338.99401 1.576152+02228 3102  287
 8342.27200 1.580582+0 8345.73151 1.575672+0 8348.76651 1.563375+02228 3102  288
 8351.80151 1.543955+0 8354.83651 1.517917+0 8359.38901 1.467935+02228 3102  289
 8363.94151 1.407269+0 8368.49400 1.338848+0 8377.59901 1.189929+02228 3102  290
 8386.70400 1.039966+0 8392.47051 9.500224-1 8398.23701 8.660537-12228 3102  291
 8402.56189 8.075105-1 8406.88676 7.529023-1 8411.28751 7.013172-12228 3102  292
 8415.84001 6.520674-1 8420.39251 6.068060-1 8424.94501 5.652858-12228 3102  293
 8429.49751 5.272384-1 8434.05000 4.923905-1 8438.60251 4.604734-12228 3102  294
 8443.15501 4.312310-1 8447.70751 4.044223-1 8452.26001 3.798240-12228 3102  295
 8456.81251 3.572308-1 8461.36501 3.364557-1 8465.91751 3.173359-12228 3102  296
 8470.47000 2.997661-1 8476.54001 2.784027-1 8482.61000 2.590877-12228 3102  297
 8488.68001 2.416401-1 8494.75000 2.258426-1 8500.82001 2.115044-12228 3102  298
 8506.89000 1.984595-1 8512.96001 1.865635-1 8519.03001 1.756907-12228 3102  299
 8525.10001 1.657309-1 8531.17000 1.565882-1 8537.24001 1.481781-12228 3102  300
 8543.31000 1.404267-1 8549.38001 1.332685-1 8558.48501 1.235197-12228 3102  301
 8567.59001 1.148096-1 8576.69501 1.069993-1 8585.80001 9.997035-22228 3102  302
 8594.90501 9.362401-2 8604.01000 8.787522-2 8613.11501 8.265274-22228 3102  303
 8622.22001 7.789447-2 8632.08376 7.320286-2 8643.46501 6.831736-22228 3102  304
 8654.84626 6.395174-2 8664.71001 6.048929-2 8670.78001 5.848949-22228 3102  305
 8682.92000 5.481156-2 8695.06000 5.148754-2 8707.20000 4.847381-22228 3102  306
 8719.34001 4.573322-2 8731.48000 4.323402-2 8743.62001 4.094894-22228 3102  307
 8755.76000 3.885442-2 8767.90000 3.693008-2 8780.04000 3.515818-22228 3102  308
 8792.18001 3.352323-2 8810.39001 3.130136-2 8828.60000 2.931247-22228 3102  309
 8846.81001 2.753526-2 8865.02001 2.593300-2 8883.23001 2.449128-22228 3102  310
 8901.44000 2.318358-2 8919.65001 2.199992-2 8937.86001 2.092074-22228 3102  311
 8950.00000 2.025752-2 8974.28000 1.904347-2 8998.56000 1.796234-22228 3102  312
 9022.84000 1.699829-2 9047.12000 1.613628-2 9071.40000 1.536371-22228 3102  313
 9095.68000 1.466994-2 9119.96000 1.404520-2 9150.31000 1.335189-22228 3102  314
 9182.17751 1.271881-2 9207.97501 1.226582-2 9223.15000 1.201494-22228 3102  315
 9253.50000 1.157035-2 9283.85000 1.118188-2 9314.20000 1.084407-22228 3102  316
 9344.55000 1.055243-2 9374.90000 1.030323-2 9405.25000 1.009349-22228 3102  317
 9435.60000 9.920821-3 9465.95000 9.783414-3 9496.30000 9.679965-32228 3102  318
 9526.65000 9.609663-3 9572.17500 9.565761-3 9617.70000 9.597038-32228 3102  319
 9648.05000 9.660503-3 9678.40000 9.760860-3 9708.75000 9.900186-32228 3102  320
 9739.10000 1.008169-2 9769.45000 1.030950-2 9799.80000 1.058831-22228 3102  321
 9826.00000 1.087555-2 9855.75000 1.126235-2 9885.50000 1.172047-22228 3102  322
 9922.68751 1.241210-2 9945.00000 1.290226-2 9967.31251 1.346156-22228 3102  323
 9989.62500 1.409527-2 10011.9376 1.482161-2 10034.2500 1.564846-22228 3102  324
 10049.1251 1.626904-2 10064.0000 1.695093-2 10078.8751 1.770186-22228 3102  325
 10093.7500 1.853164-2 10108.6251 1.945062-2 10123.5000 2.046974-22228 3102  326
 10138.3751 2.160369-2 10153.2500 2.287323-2 10168.1251 2.430588-22228 3102  327
 10183.0000 2.591441-2 10194.9001 2.735431-2 10206.8000 2.895036-22228 3102  328
 10218.7000 3.072570-2 10230.6000 3.270787-2 10242.5001 3.492218-22228 3102  329
 10251.4251 3.676148-2 10260.3501 3.878432-2 10269.2751 4.100737-22228 3102  330
 10278.2000 4.345760-2 10287.1251 4.616707-2 10296.0501 4.917319-22228 3102  331
 10304.9751 5.252085-2 10313.9001 5.626331-2 10322.8251 6.046501-22228 3102  332
 10328.7751 6.355892-2 10334.7251 6.691821-2 10340.6751 7.057388-22228 3102  333
 10346.6251 7.456158-2 10352.5751 7.892251-2 10358.5251 8.370433-22228 3102  334
 10364.4751 8.896249-2 10370.4251 9.476179-2 10376.3751 1.011783-12228 3102  335
 10382.3251 1.082928-1 10388.2751 1.161909-1 10392.7376 1.227358-12228 3102  336
 10397.2000 1.298824-1 10401.6626 1.376941-1 10406.1251 1.462468-12228 3102  337
 10410.5876 1.556373-1 10415.0501 1.659874-1 10419.5126 1.774213-12228 3102  338
 10424.3463 1.912035-1 10427.6926 2.017216-1 10431.0389 2.131324-12228 3102  339
 10434.3851 2.255331-1 10437.7314 2.390495-1 10441.0776 2.538173-12228 3102  340
 10444.4238 2.699909-1 10447.7700 2.877362-1 10451.6758 3.106968-12228 3102  341
 10454.2795 3.275315-1 10456.8833 3.457429-1 10459.4870 3.654779-12228 3102  342
 10462.0908 3.869017-1 10464.6945 4.101932-1 10467.2982 4.355497-12228 3102  343
 10469.6226 4.601107-1 10472.6901 4.956089-1 10475.7576 5.350812-12228 3102  344
 10478.8251 5.791662-1 10480.8701 6.114547-1 10482.9151 6.463083-12228 3102  345
 10484.9600 6.839582-1 10487.7501 7.403072-1 10490.5401 8.030513-12228 3102  346
 10492.4001 8.488290-1 10494.2601 8.980787-1 10496.1201 9.510745-12228 3102  347
 10497.9801 1.008105+0 10499.8400 1.069453+0 10502.2383 1.155402+02228 3102  348
 10504.6364 1.249593+0 10507.0345 1.352543+0 10509.4326 1.464608+02228 3102  349
 10511.8307 1.585909+0 10514.1176 1.709963+0 10517.0926 1.882450+02228 3102  350
 10521.5551 2.158003+0 10526.0176 2.435796+0 10528.9926 2.607075+02228 3102  351
 10531.2238 2.720071+0 10533.4551 2.814101+0 10534.9426 2.863862+02228 3102  352
 10536.4300 2.901833+0 10538.0650 2.928821+0 10539.9400 2.939708+02228 3102  353
 10541.6976 2.930065+0 10543.5239 2.900083+0 10545.3500 2.850938+02228 3102  354
 10547.5814 2.767629+0 10549.8126 2.662928+0 10552.2676 2.529041+02228 3102  355
 10555.1701 2.354619+0 10562.0901 1.922710+0 10565.1400 1.743113+02228 3102  356
 10567.4276 1.616751+0 10569.7151 1.498483+0 10572.0770 1.385172+02228 3102  357
 10574.5876 1.274482+0 10577.0983 1.173519+0 10579.6089 1.081773+02228 3102  358
 10582.1195 9.985832-1 10584.6300 9.232226-1 10586.4888 8.720353-12228 3102  359
 10588.3476 8.244619-1 10590.2064 7.802317-1 10592.9945 7.196084-12228 3102  360
 10595.7826 6.651660-1 10598.5707 6.162105-1 10600.6157 5.834293-12228 3102  361
 10602.8470 5.503850-1 10605.0783 5.199243-1 10607.3095 4.917905-12228 3102  362
 10609.5408 4.657444-1 10612.8876 4.301763-1 10616.2345 3.983634-12228 3102  363
 10618.6513 3.774650-1 10621.2539 3.566989-1 10623.8564 3.375602-12228 3102  364
 10626.4589 3.198850-1 10629.0614 3.035294-1 10632.9651 2.812049-12228 3102  365
 10636.8688 2.612170-1 10639.8438 2.473708-1 10643.1914 2.330653-12228 3102  366
 10646.5389 2.199676-1 10649.8864 2.079457-1 10653.2339 1.968822-12228 3102  367
 10656.5814 1.866797-1 10659.9289 1.772545-1 10664.9500 1.644232-12228 3102  368
 10669.9714 1.529611-1 10674.9926 1.426768-1 10680.0139 1.334181-12228 3102  369
 10685.0351 1.250547-1 10690.0563 1.174874-1 10695.0763 1.106328-12228 3102  370
 10700.0958 1.043827-1 10705.1151 9.865558-2 10710.1345 9.340855-22228 3102  371
 10715.1538 8.859233-2 10720.3595 8.400399-2 10725.9376 7.949773-22228 3102  372
 10731.5158 7.537015-2 10737.0939 7.158067-2 10744.5313 6.699333-22228 3102  373
 10751.9688 6.287259-2 10759.4064 5.915818-2 10766.8439 5.579924-22228 3102  374
 10774.2813 5.275258-2 10781.7188 4.998128-2 10789.1564 4.745374-22228 3102  375
 10796.5939 4.514282-2 10804.0313 4.302503-2 10815.1876 4.016645-22228 3102  376
 10826.3439 3.763883-2 10837.5000 3.540125-2 10850.8876 3.303300-22228 3102  377
 10864.2751 3.095399-2 10877.6626 2.912594-2 10891.0500 2.751153-22228 3102  378
 10904.4376 2.608059-2 10915.5951 2.501092-2 10928.9851 2.385150-22228 3102  379
 10944.6051 2.266193-2 10953.5300 2.204986-2 10971.3800 2.094918-22228 3102  380
 10986.2501 2.014513-2 11001.1200 1.943176-2 11015.9950 1.879875-22228 3102  381
 11038.3076 1.798268-2 11060.6200 1.729914-2 11085.0326 1.669135-22228 3102  382
 11109.8851 1.618917-2 11126.6000 1.591689-2 11154.7500 1.555754-22228 3102  383
 11182.9000 1.530984-2 11211.0500 1.516394-2 11239.2000 1.511180-22228 3102  384
 11267.3500 1.514811-2 11295.5000 1.526989-2 11323.6500 1.547624-22228 3102  385
 11351.8000 1.576779-2 11381.3576 1.616995-2 11405.2851 1.656999-22228 3102  386
 11430.6201 1.707913-2 11453.1401 1.760142-2 11472.8451 1.812003-22228 3102  387
 11498.1800 1.887306-2 11523.5151 1.975487-2 11548.8500 2.076245-22228 3102  388
 11574.1851 2.192737-2 11599.5200 2.327122-2 11616.4101 2.428265-22228 3102  389
 11633.3000 2.539750-2 11650.1900 2.663183-2 11667.0800 2.799814-22228 3102  390
 11683.9700 2.951852-2 11700.8600 3.121091-2 11717.7501 3.310635-22228 3102  391
 11734.6400 3.522770-2 11748.7151 3.720049-2 11762.7900 3.939085-22228 3102  392
 11776.8651 4.182735-2 11790.9400 4.454778-2 11805.0150 4.759772-22228 3102  393
 11815.5713 5.013410-2 11826.1276 5.291410-2 11836.6839 5.596984-22228 3102  394
 11847.2400 5.933884-2 11857.7964 6.306540-2 11868.3526 6.720163-22228 3102  395
 11878.9088 7.180965-2 11889.4651 7.696358-2 11900.0213 8.275261-22228 3102  396
 11907.0588 8.701711-2 11914.0964 9.164884-2 11921.1339 9.669067-22228 3102  397
 11928.1713 1.021918-1 11935.2088 1.082089-1 11942.2464 1.148075-12228 3102  398
 11949.2839 1.220634-1 11956.3213 1.300647-1 11963.3588 1.389144-12228 3102  399
 11970.3964 1.487332-1 11977.4339 1.596629-1 11982.7120 1.686852-12228 3102  400
 11987.9900 1.784830-1 11993.2683 1.891678-1 11998.5464 2.008741-12228 3102  401
 12003.8245 2.137084-1 12009.1026 2.277958-1 12014.3807 2.432937-12228 3102  402
 12019.6588 2.603873-1 12024.9370 2.792931-1 12030.2151 3.002330-12228 3102  403
 12035.4933 3.235006-1 12040.7713 3.493892-1 12045.8732 3.772325-12228 3102  404
 12050.6226 4.059581-1 12055.3720 4.377416-1 12060.1214 4.729235-12228 3102  405
 12064.8708 5.118792-1 12069.6200 5.550311-1 12073.9495 5.983420-12228 3102  406
 12078.2789 6.457818-1 12082.6083 6.976485-1 12086.9376 7.541690-12228 3102  407
 12091.2670 8.155139-1 12095.2438 8.761989-1 12100.3114 9.594029-12228 3102  408
 12105.3789 1.048826+0 12110.4463 1.143813+0 12115.7951 1.249252+02228 3102  409
 12121.4251 1.365689+0 12127.0551 1.489706+0 12131.2776 1.592222+02228 3102  410
 12134.0926 1.669012+0 12136.5401 1.744652+0 12138.6201 1.818318+02228 3102  411
 12140.2250 1.883098+0 12141.8176 1.956130+0 12143.3589 2.037088+02228 3102  412
 12144.9001 2.130358+0 12146.4414 2.238391+0 12147.9826 2.363667+02228 3102  413
 12149.0100 2.457902+0 12150.1363 2.571773+0 12151.2626 2.696956+02228 3102  414
 12152.9520 2.905145+0 12154.6414 3.133401+0 12156.8938 3.450215+02228 3102  415
 12158.4876 3.662072+0 12159.8900 3.822300+0 12160.8251 3.908010+02228 3102  416
 12161.7600 3.972190+0 12162.7700 4.013607+0 12163.5276 4.023939+02228 3102  417
 12164.5001 4.010071+0 12165.3401 3.973607+0 12166.1801 3.915398+02228 3102  418
 12167.0201 3.837154+0 12168.1401 3.705773+0 12169.1201 3.570335+02228 3102  419
 12170.3800 3.376475+0 12173.6851 2.831698+0 12175.3101 2.576277+02228 3102  420
 12176.5289 2.398436+0 12177.7476 2.234415+0 12178.5600 2.133037+02228 3102  421
 12179.6801 2.003609+0 12180.8001 1.885705+0 12181.9201 1.778553+02228 3102  422
 12183.0400 1.681278+0 12184.1601 1.592928+0 12185.2801 1.512604+02228 3102  423
 12186.4001 1.439431+0 12187.5200 1.372623+0 12188.9201 1.296961+02228 3102  424
 12190.3201 1.228899+0 12191.7201 1.167384+0 12193.1200 1.111534+02228 3102  425
 12194.5201 1.060588+0 12196.6201 9.920244-1 12198.7200 9.313765-12228 3102  426
 12200.8201 8.772790-1 12202.9201 8.286793-1 12205.0201 7.847294-12228 3102  427
 12207.1201 7.447570-1 12209.9200 6.967176-1 12212.2301 6.609485-12228 3102  428
 12214.5401 6.281873-1 12217.6201 5.885512-1 12220.7001 5.528918-12228 3102  429
 12223.7745 5.206781-1 12226.8433 4.914286-1 12229.9120 4.647222-12228 3102  430
 12232.9808 4.402641-1 12236.0495 4.178104-1 12239.1183 3.971528-12228 3102  431
 12243.7213 3.690697-1 12248.4751 3.432058-1 12253.5301 3.187625-12228 3102  432
 12258.5851 2.970207-1 12263.6401 2.775999-1 12268.6951 2.601787-12228 3102  433
 12273.7500 2.445051-1 12278.9289 2.300487-1 12284.1076 2.170029-12228 3102  434
 12289.2864 2.051955-1 12294.4651 1.944835-1 12299.6438 1.847518-12228 3102  435
 12305.3151 1.750949-1 12311.2326 1.659963-1 12317.1501 1.577831-12228 3102  436
 12323.0676 1.503760-1 12328.9851 1.437001-1 12336.8751 1.357050-12228 3102  437
 12344.7651 1.286704-1 12352.6551 1.224819-1 12360.5451 1.170360-12228 3102  438
 12368.4351 1.122463-1 12376.3251 1.080399-1 12384.2151 1.043557-12228 3102  439
 12392.1051 1.011419-1 12399.9951 9.835481-2 12411.8301 9.489504-22228 3102  440
 12423.6651 9.221430-2 12435.5001 9.023398-2 12447.3351 8.889839-22228 3102  441
 12459.1700 8.816515-2 12467.0600 8.799792-2 12478.8951 8.821775-22228 3102  442
 12490.7301 8.899707-2 12502.5651 9.034318-2 12514.4001 9.227233-22228 3102  443
 12526.2351 9.481576-2 12538.0701 9.801487-2 12549.9051 1.019289-12228 3102  444
 12561.7400 1.066306-1 12573.5751 1.122159-1 12581.4651 1.164864-12228 3102  445
 12589.3551 1.212426-1 12596.7513 1.261846-1 12607.1051 1.339658-12228 3102  446
 12614.0076 1.397636-1 12620.9100 1.461462-1 12627.8151 1.531509-12228 3102  447
 12634.7200 1.608436-1 12641.6251 1.692996-1 12648.5300 1.785968-12228 3102  448
 12655.4351 1.888290-1 12662.3401 2.001053-1 12669.2451 2.125457-12228 3102  449
 12676.1500 2.262850-1 12683.0526 2.414898-1 12689.9551 2.583215-12228 3102  450
 12696.8576 2.769703-1 12703.7600 2.976642-1 12710.6651 3.206587-12228 3102  451
 12717.5701 3.461905-1 12722.7489 3.671530-1 12727.9276 3.898183-12228 3102  452
 12733.2045 4.147845-1 12738.6776 4.427930-1 12744.1508 4.730306-12228 3102  453
 12749.6239 5.055927-1 12753.2726 5.286189-1 12760.5700 5.778220-12228 3102  454
 12767.6701 6.294578-1 12778.3201 7.124941-1 12792.9151 8.297618-12228 3102  455
 12800.8051 8.888855-1 12806.7226 9.280820-1 12812.6400 9.607698-12228 3102  456
 12816.5851 9.780523-1 12820.5300 9.911838-1 12824.8700 1.000405+02228 3102  457
 12829.5300 1.003859+0 12833.6851 1.001165+0 12836.2700 9.967776-12228 3102  458
 12841.4400 9.820303-1 12847.2114 9.569174-1 12852.9826 9.240404-12228 3102  459
 12858.9988 8.833103-1 12865.5050 8.341149-1 12884.8339 6.777274-12228 3102  460
 12891.9364 6.224693-1 12899.0388 5.704043-1 12906.3376 5.208039-12228 3102  461
 12911.9589 4.854857-1 12917.5801 4.526615-1 12923.2014 4.222751-12228 3102  462
 12928.8226 3.942267-1 12934.2957 3.690138-1 12939.4726 3.469719-12228 3102  463
 12944.6495 3.265681-1 12949.8264 3.076811-1 12956.7288 2.846604-12228 3102  464
 12963.6326 2.638789-1 12970.5376 2.450970-1 12977.4426 2.280934-12228 3102  465
 12984.3476 2.126791-1 12991.7451 1.977573-1 12995.6901 1.904307-12228 3102  466
 13003.5801 1.768757-1 13011.4701 1.646239-1 13019.3600 1.535632-12228 3102  467
 13027.2501 1.435536-1 13035.1400 1.344734-1 13043.0301 1.262164-12228 3102  468
 13050.9200 1.186904-1 13058.8101 1.118147-1 13066.7000 1.055195-12228 3102  469
 13074.5901 9.974317-2 13082.4800 9.443201-2 13090.3701 8.953858-22228 3102  470
 13098.2601 8.502142-2 13110.0951 7.887220-2 13121.9301 7.338057-22228 3102  471
 13133.7651 6.845855-2 13145.6000 6.403033-2 13157.4351 6.003348-22228 3102  472
 13169.2701 5.641379-2 13181.1051 5.312624-2 13192.9400 5.013124-22228 3102  473
 13204.7751 4.739574-2 13216.6101 4.489053-2 13224.5001 4.334299-22228 3102  474
 13240.2800 4.048774-2 13256.0601 3.791729-2 13271.8400 3.560149-22228 3102  475
 13287.6200 3.350781-2 13303.4000 3.160876-2 13319.1801 2.988095-22228 3102  476
 13334.9600 2.830441-2 13350.7401 2.686198-2 13366.5200 2.553889-22228 3102  477
 13382.3000 2.432232-2 13398.0800 2.320117-2 13421.7501 2.167974-22228 3102  478
 13445.4201 2.031892-2 13469.0901 1.910443-2 13492.7600 1.800969-22228 3102  479
 13516.4301 1.702519-2 13540.1000 1.613186-2 13563.7701 1.532327-22228 3102  480
 13587.4400 1.458667-2 13619.0000 1.370429-2 13650.5600 1.291870-22228 3102  481
 13682.1200 1.221784-2 13713.6800 1.159045-2 13745.2400 1.102711-22228 3102  482
 13776.8000 1.051995-2 13808.3600 1.006230-2 13839.9200 9.648045-32228 3102  483
 13879.3700 9.185210-3 13920.7926 8.758823-3 13970.8600 8.305714-32228 3102  484
 14007.1200 8.019267-3 14043.6600 7.760841-3 14080.2100 7.529847-32228 3102  485
 14135.0251 7.231173-3 14185.1100 6.997823-3 14240.7800 6.786488-32228 3102  486
 14288.4950 6.634937-3 14344.1600 6.490439-3 14407.7800 6.370616-32228 3102  487
 14471.4000 6.292518-3 14550.9250 6.251278-3 14566.8300 6.249574-32228 3102  488
 14614.5451 6.264389-3 14662.2600 6.295314-3 14725.8800 6.375115-32228 3102  489
 14789.5000 6.496659-3 14853.1200 6.662888-3 14916.7400 6.877605-32228 3102  490
 14964.4551 7.075004-3 15012.1700 7.304100-3 15059.8851 7.572926-32228 3102  491
 15107.6000 7.880701-3 15155.3150 8.238708-3 15203.0300 8.646856-32228 3102  492
 15234.8400 8.953832-3 15266.6500 9.290987-3 15298.4600 9.661539-32228 3102  493
 15330.2700 1.006919-2 15362.0800 1.051821-2 15393.8900 1.101356-22228 3102  494
 15425.7000 1.156099-2 15457.5100 1.216721-2 15489.3200 1.284011-22228 3102  495
 15521.1300 1.358895-2 15552.9400 1.442469-2 15592.7026 1.560954-22228 3102  496
 15616.5600 1.640824-2 15640.4176 1.728433-2 15664.2751 1.824281-22228 3102  497
 15688.1326 1.929970-2 15711.9900 2.046173-2 15735.8476 2.174947-22228 3102  498
 15759.7051 2.317440-2 15783.5626 2.476290-2 15807.4200 2.653115-22228 3102  499
 15831.2776 2.851706-2 15847.1826 2.997418-2 15863.0876 3.155252-22228 3102  500
 15878.9926 3.326532-2 15894.8976 3.512761-2 15910.8026 3.715714-22228 3102  501
 15926.7076 3.937211-2 15942.6126 4.179457-2 15958.5176 4.445146-22228 3102  502
 15974.4226 4.737192-2 15990.3276 5.056271-2 16006.2326 5.411039-22228 3102  503
 16022.1376 5.803602-2 16038.0426 6.239339-2 16053.9476 6.723692-22228 3102  504
 16065.8763 7.123146-2 16077.8051 7.556859-2 16089.7338 8.028803-22228 3102  505
 16101.6626 8.542748-2 16113.5914 9.102715-2 16125.5200 9.713554-22228 3102  506
 16137.4489 1.038063-1 16149.3776 1.110863-1 16161.3063 1.190405-12228 3102  507
 16173.2350 1.277232-1 16185.1638 1.371885-1 16197.0926 1.474978-12228 3102  508
 16209.0214 1.586894-1 16220.9500 1.707996-1 16232.8789 1.838371-12228 3102  509
 16244.8076 1.977784-1 16260.7126 2.176553-1 16284.5700 2.494029-12228 3102  510
 16308.4276 2.813279-1 16324.3326 3.008531-1 16336.2614 3.135492-12228 3102  511
 16348.1900 3.238747-1 16359.0464 3.307144-1 16369.9026 3.347508-12228 3102  512
 16379.0500 3.358247-1 16388.7451 3.345562-1 16395.9000 3.320741-12228 3102  513
 16403.8526 3.278514-1 16411.8050 3.221985-1 16423.7338 3.113764-12228 3102  514
 16435.6651 2.982895-1 16451.5751 2.784078-1 16494.5200 2.207925-12228 3102  515
 16510.4251 2.006744-1 16522.3538 1.865290-1 16535.4751 1.720184-12228 3102  516
 16549.1926 1.580661-1 16562.9100 1.453323-1 16574.8389 1.352112-12228 3102  517
 16586.7676 1.259317-1 16598.6963 1.174405-1 16610.6250 1.096697-12228 3102  518
 16622.5538 1.025687-1 16634.4826 9.607742-2 16646.4114 9.014208-22228 3102  519
 16658.3400 8.471230-2 16670.2689 7.973983-2 16682.1976 7.518515-22228 3102  520
 16695.1201 7.067888-2 16710.0301 6.597548-2 16724.9401 6.177074-22228 3102  521
 16737.8626 5.844077-2 16745.8151 5.652364-2 16761.7200 5.301064-22228 3102  522
 16777.6250 4.985817-2 16793.5300 4.702553-2 16809.4351 4.448087-22228 3102  523
 16825.3400 4.219289-2 16841.2451 4.013751-2 16857.1500 3.829408-22228 3102  524
 16873.0550 3.664321-2 16888.9600 3.516882-2 16904.8651 3.385919-22228 3102  525
 16920.7700 3.270280-2 16936.6751 3.169207-2 16952.5800 3.081996-22228 3102  526
 16968.4850 3.008280-2 16984.3900 2.947782-2 17000.2951 2.900533-22228 3102  527
 17016.2000 2.866722-2 17032.1050 2.846846-2 17048.0100 2.841684-22228 3102  528
 17063.9150 2.852352-2 17079.8200 2.880429-2 17095.7251 2.927409-22228 3102  529
 17107.6538 2.976872-2 17119.5826 3.040864-2 17131.5114 3.120670-22228 3102  530
 17143.4400 3.218640-2 17155.3689 3.337533-2 17167.2976 3.480918-22228 3102  531
 17179.2263 3.653334-2 17187.1789 3.787098-2 17195.1314 3.938191-22228 3102  532
 17203.0838 4.109110-2 17211.0363 4.302845-2 17218.9889 4.522780-22228 3102  533
 17226.9414 4.772587-2 17234.8938 5.056427-2 17240.8582 5.296948-22228 3102  534
 17246.8226 5.564294-2 17252.7870 5.861779-2 17258.7514 6.193839-22228 3102  535
 17264.7158 6.565654-2 17270.6800 6.983360-2 17276.7739 7.465134-22228 3102  536
 17280.8364 7.822021-2 17284.8989 8.211145-2 17288.9614 8.635483-22228 3102  537
 17293.0239 9.099516-2 17297.0864 9.609094-2 17301.1488 1.017051-12228 3102  538
 17304.7338 1.071453-1 17309.3951 1.149921-1 17312.5026 1.207715-12228 3102  539
 17315.6100 1.270450-1 17318.7176 1.338687-1 17321.8251 1.413067-12228 3102  540
 17324.9326 1.494347-1 17328.0400 1.583378-1 17331.7676 1.701791-12228 3102  541
 17335.4951 1.834737-1 17337.9800 1.932587-1 17340.4651 2.038753-12228 3102  542
 17342.9501 2.154158-1 17345.4351 2.279883-1 17347.9200 2.417139-12228 3102  543
 17350.0951 2.547831-1 17352.2701 2.689452-1 17354.4451 2.843178-12228 3102  544
 17356.6201 3.010309-1 17358.7951 3.192326-1 17360.9701 3.390853-12228 3102  545
 17363.1451 3.607779-1 17365.3200 3.845262-1 17367.6508 4.125454-12228 3102  546
 17369.9814 4.435657-1 17372.3120 4.779830-1 17374.6426 5.162338-12228 3102  547
 17376.9732 5.588083-1 17379.1476 6.029027-1 17381.2439 6.498736-12228 3102  548
 17383.3400 7.016888-1 17385.4364 7.588424-1 17387.5326 8.218128-12228 3102  549
 17389.6295 8.910853-1 17391.7276 9.670726-1 17393.8258 1.049996+02228 3102  550
 17395.9239 1.139898+0 17398.0220 1.236523+0 17400.1200 1.339170+02228 3102  551
 17404.3450 1.558319+0 17407.5138 1.723727+0 17409.8126 1.836504+02228 3102  552
 17411.6764 1.918972+0 17413.5400 1.989859+0 17415.4039 2.046038+02228 3102  553
 17416.6464 2.073951+0 17417.8888 2.093479+0 17419.2051 2.104516+02228 3102  554
 17419.9500 2.106246+0 17421.3326 2.100745+0 17422.6564 2.085018+02228 3102  555
 17423.9800 2.059482+0 17425.8439 2.008206+0 17427.7076 1.941337+02228 3102  556
 17429.6951 1.856270+0 17431.9300 1.748497+0 17438.6414 1.398278+02228 3102  557
 17441.1289 1.273553+0 17443.6163 1.156710+0 17445.5588 1.071897+02228 3102  558
 17447.6551 9.870657-1 17449.7514 9.091973-1 17451.8476 8.380882-12228 3102  559
 17453.9439 7.733771-1 17456.0400 7.146255-1 17457.5938 6.746321-12228 3102  560
 17459.1476 6.374475-1 17460.7014 6.028721-1 17463.0320 5.554947-12228 3102  561
 17465.3626 5.129764-1 17467.6932 4.747749-1 17469.4795 4.481125-12228 3102  562
 17471.4983 4.204321-1 17473.5170 3.950968-1 17475.5358 3.718641-12228 3102  563
 17477.5545 3.505201-1 17479.5733 3.308794-1 17481.5920 3.127801-12228 3102  564
 17483.6107 2.960778-1 17485.7076 2.800686-1 17487.8826 2.647669-12228 3102  565
 17490.0576 2.506645-1 17492.2326 2.376452-1 17495.4951 2.199244-12228 3102  566
 17498.7576 2.041067-1 17502.0200 1.899350-1 17504.8163 1.789329-12228 3102  567
 17507.6126 1.688662-1 17510.4089 1.596346-1 17513.2051 1.511514-12228 3102  568
 17516.0014 1.433395-1 17518.7976 1.361320-1 17522.9920 1.263231-12228 3102  569
 17526.2545 1.194274-1 17529.9833 1.122362-1 17533.7120 1.056982-12228 3102  570
 17537.4408 9.973992-2 17541.1695 9.430033-2 17544.8983 8.932226-22228 3102  571
 17548.6270 8.474644-2 17552.3557 8.052475-2 17556.3945 7.631381-22228 3102  572
 17560.7433 7.215986-2 17565.0920 6.835805-2 17569.4408 6.486981-22228 3102  573
 17573.7895 6.166158-2 17580.3126 5.731148-2 17586.8357 5.344365-22228 3102  574
 17593.3601 4.998968-2 17599.8851 4.689018-2 17606.4100 4.409785-22228 3102  575
 17612.9351 4.157395-2 17619.4601 3.928510-2 17625.9851 3.720267-22228 3102  576
 17632.5101 3.530238-2 17641.2101 3.301724-2 17649.9101 3.097736-22228 3102  577
 17658.6100 2.915354-2 17668.5526 2.728917-2 17678.4951 2.562057-22228 3102  578
 17688.4376 2.412650-2 17698.3800 2.278343-2 17708.3201 2.157033-22228 3102  579
 17718.2601 2.047062-2 17728.2001 1.947033-2 17738.1400 1.855579-22228 3102  580
 17748.7051 1.766991-2 17759.2700 1.686289-2 17775.1176 1.577804-22228 3102  581
 17789.7201 1.488861-2 17803.7001 1.412397-2 17817.6800 1.343347-22228 3102  582
 17836.3200 1.261176-2 17854.9600 1.188468-2 17873.6001 1.123931-22228 3102  583
 17892.2400 1.066204-2 17910.8851 1.014430-2 17929.5300 9.677194-32228 3102  584
 17948.1701 9.258744-3 17966.8100 8.872768-3 17991.6650 8.412821-32228 3102  585
 18016.5200 8.004245-3 18041.3750 7.639813-3 18066.2300 7.313649-32228 3102  586
 18091.0851 7.020728-3 18115.9400 6.756946-3 18140.7951 6.519084-32228 3102  587
 18178.0776 6.206182-3 18215.3600 5.935924-3 18252.6426 5.706922-32228 3102  588
 18289.9251 5.511600-3 18327.2076 5.350301-3 18364.4900 5.218400-32228 3102  589
 18401.7726 5.118129-3 18439.0550 5.047065-3 18463.9100 5.017958-32228 3102  590
 18494.9800 5.002557-3 18527.5976 5.016722-3 18560.0750 5.061325-32228 3102  591
 18590.0801 5.137387-3 18615.2800 5.231017-3 18635.9201 5.332639-32228 3102  592
 18656.5600 5.459793-3 18677.2000 5.617367-3 18703.0001 5.864521-32228 3102  593
 18718.4800 6.047014-3 18733.9601 6.260011-3 18749.4401 6.508626-32228 3102  594
 18764.9201 6.799723-3 18780.4000 7.141543-3 18790.7201 7.402877-32228 3102  595
 18801.0400 7.695394-3 18811.3601 8.023729-3 18821.6800 8.393415-32228 3102  596
 18830.7101 8.756037-3 18839.7401 9.160780-3 18848.7701 9.613166-32228 3102  597
 18857.8000 1.011837-2 18866.8301 1.069160-2 18875.8600 1.134154-22228 3102  598
 18882.6326 1.188716-2 18889.4051 1.249019-2 18896.1776 1.315877-22228 3102  599
 18902.9501 1.390251-2 18909.7226 1.473289-2 18916.4951 1.566362-22228 3102  600
 18923.2676 1.671129-2 18930.0400 1.789599-2 18934.5551 1.877391-22228 3102  601
 18939.0701 1.973196-2 18943.5851 2.077933-2 18948.1001 2.192734-22228 3102  602
 18952.6151 2.319150-2 18957.1301 2.458947-2 18961.6451 2.613897-22228 3102  603
 18966.1600 2.785992-2 18969.5138 2.926490-2 18972.8676 3.079225-22228 3102  604
 18976.2214 3.245602-2 18979.5750 3.427118-2 18982.9289 3.625662-22228 3102  605
 18986.2826 3.843701-2 18989.6363 4.084097-2 18992.9900 4.349920-22228 3102  606
 18996.4739 4.656825-2 18999.9576 4.999808-2 19003.4414 5.384731-22228 3102  607
 19005.7639 5.668127-2 19008.0864 5.975803-2 19010.4088 6.310577-22228 3102  608
 19012.6020 6.654505-2 19014.6658 7.005683-2 19016.7295 7.386627-22228 3102  609
 19018.7933 7.800778-2 19020.8570 8.252093-2 19022.9208 8.745134-22228 3102  610
 19024.9845 9.285173-2 19027.0482 9.878310-2 19028.8538 1.044635-12228 3102  611
 19031.1751 1.125314-1 19032.7226 1.184504-1 19034.2700 1.248567-12228 3102  612
 19035.8176 1.318068-1 19037.3651 1.393636-1 19038.9126 1.476008-12228 3102  613
 19040.4600 1.566017-1 19042.3951 1.690819-1 19043.6851 1.782581-12228 3102  614
 19044.9751 1.882078-1 19046.2651 1.990191-1 19047.5551 2.107925-12228 3102  615
 19048.8451 2.236429-1 19050.1351 2.377028-1 19051.2963 2.515206-12228 3102  616
 19052.3289 2.648376-1 19053.3614 2.792310-1 19054.3939 2.948163-12228 3102  617
 19055.4264 3.117256-1 19056.4589 3.301079-1 19057.4914 3.501326-12228 3102  618
 19058.5238 3.719930-1 19059.7501 4.006494-1 19060.8151 4.282265-12228 3102  619
 19061.8800 4.586387-1 19062.9451 4.922702-1 19064.0101 5.295399-12228 3102  620
 19065.0426 5.696161-1 19066.0101 6.111461-1 19066.9776 6.570087-12228 3102  621
 19067.9451 7.077204-1 19068.9126 7.638633-1 19069.8800 8.260504-12228 3102  622
 19070.8476 8.949746-1 19071.8151 9.712966-1 19072.7826 1.055716+02228 3102  623
 19073.7501 1.148869+0 19074.7176 1.251320+0 19075.6201 1.355608+02228 3102  624
 19076.4901 1.464243+0 19077.3600 1.580692+0 19078.5201 1.747435+02228 3102  625
 19079.6800 1.925439+0 19083.2938 2.508934+0 19084.4276 2.680458+02228 3102  626
 19085.3539 2.807724+0 19086.2800 2.918943+0 19087.0564 2.996973+02228 3102  627
 19087.8326 3.058948+0 19088.7276 3.108331+0 19089.4826 3.130314+02228 3102  628
 19090.0000 3.134621+0 19090.5176 3.130098+0 19091.2726 3.107805+02228 3102  629
 19092.1676 3.058073+0 19092.9439 2.995813+0 19093.7200 2.917559+02228 3102  630
 19094.6464 2.806064+0 19095.5726 2.678612+0 19096.7063 2.506919+02228 3102  631
 19100.3200 1.923379+0 19101.4801 1.745428+0 19102.6401 1.578793+02228 3102  632
 19103.5101 1.462404+0 19104.3801 1.353873+0 19105.2826 1.249678+02228 3102  633
 19106.2501 1.147330+0 19107.2176 1.054264+0 19108.1851 9.699417-12228 3102  634
 19109.1526 8.937062-1 19110.1200 8.248842-1 19110.8301 7.786759-12228 3102  635
 19111.5401 7.358240-1 19112.2501 6.960645-1 19112.9601 6.591642-12228 3102  636
 19114.0251 6.086641-1 19115.0901 5.633858-1 19115.8000 5.357887-12228 3102  637
 19116.7026 5.033864-1 19117.6051 4.737081-1 19118.5076 4.464736-12228 3102  638
 19119.4100 4.214422-1 19120.3126 3.983901-1 19121.2151 3.771295-12228 3102  639
 19122.1176 3.574847-1 19123.0200 3.393054-1 19124.0526 3.201240-12228 3102  640
 19125.0851 3.025010-1 19126.1176 2.862746-1 19127.1501 2.713070-12228 3102  641
 19128.1826 2.574713-1 19129.7314 2.386090-1 19131.2800 2.217386-12228 3102  642
 19132.5701 2.090108-1 19133.8601 1.973486-1 19135.1501 1.866367-12228 3102  643
 19136.4401 1.767772-1 19137.7301 1.676818-1 19139.6651 1.553098-12228 3102  644
 19141.6000 1.442710-1 19143.1476 1.362765-1 19144.6951 1.289366-12228 3102  645
 19146.2426 1.221807-1 19147.7900 1.159486-1 19150.1114 1.074670-12228 3102  646
 19152.4326 9.989501-2 19153.9800 9.529013-2 19156.0451 8.963375-22228 3102  647
 19158.1101 8.447709-2 19160.1751 7.976295-2 19162.2401 7.544255-22228 3102  648
 19164.3051 7.147301-2 19166.3701 6.781794-2 19168.4351 6.444484-22228 3102  649
 19170.5000 6.132565-2 19173.0801 5.774732-2 19175.6601 5.448482-22228 3102  650
 19178.2401 5.150203-2 19180.8200 4.876801-2 19183.4001 4.625558-22228 3102  651
 19185.9801 4.394179-2 19189.8501 4.080009-2 19192.8170 3.862780-22228 3102  652
 19196.1708 3.638885-2 19199.5245 3.435193-2 19202.8783 3.249099-22228 3102  653
 19206.2320 3.078569-2 19209.5858 2.922034-2 19212.9395 2.778081-22228 3102  654
 19217.9700 2.582850-2 19222.6138 2.421783-2 19227.2576 2.276815-22228 3102  655
 19231.9014 2.146016-2 19236.5451 2.027470-2 19241.1889 1.919504-22228 3102  656
 19245.8326 1.820902-2 19250.4763 1.730673-2 19255.1200 1.647914-22228 3102  657
 19261.8926 1.538971-2 19268.6651 1.442125-2 19275.4376 1.355642-22228 3102  658
 19282.2101 1.278092-2 19288.9826 1.208280-2 19295.7551 1.145207-22228 3102  659
 19302.5276 1.088030-2 19309.3001 1.036034-2 19318.3301 9.737285-32228 3102  660
 19327.3600 9.185503-3 19337.6801 8.626411-3 19348.0000 8.130346-32228 3102  661
 19358.3201 7.689911-3 19368.6400 7.297078-3 19378.9601 6.945184-32228 3102  662
 19389.2801 6.628710-3 19399.6001 6.343029-3 19415.0801 5.963953-32228 3102  663
 19430.5601 5.634758-3 19446.0401 5.347170-3 19461.5201 5.094344-32228 3102  664
 19477.0001 4.870994-3 19492.4800 4.672656-3 19511.8301 4.457054-32228 3102  665
 19531.1801 4.266404-3 19544.0800 4.151960-3 19564.7200 3.989140-32228 3102  666
 19585.3600 3.846448-3 19613.0201 3.681503-3 19647.3701 3.511389-32228 3102  667
 19672.5000 3.406498-3 19704.4500 3.292874-3 19736.4000 3.197683-32228 3102  668
 19768.3501 3.118113-3 19800.3000 3.051880-3 19832.2500 2.997217-32228 3102  669
 19880.1751 2.934584-3 19928.1000 2.890428-3 19976.0251 2.864720-32228 3102  670
 20023.9500 2.854081-3 20071.8751 2.859684-3 20119.8001 2.879607-32228 3102  671
 20167.7251 2.916136-3 20215.6500 2.968350-3 20263.5751 3.039939-32228 3102  672
 20311.5000 3.130913-3 20343.4500 3.204938-3 20375.4001 3.290715-32228 3102  673
 20407.3500 3.389707-3 20439.3001 3.503701-3 20471.2500 3.634868-32228 3102  674
 20503.2000 3.785869-3 20535.1500 3.959975-3 20571.0976 4.187787-32228 3102  675
 20595.0601 4.362540-3 20619.0201 4.558544-3 20642.9826 4.778948-32228 3102  676
 20666.9476 5.027480-3 20690.9101 5.308809-3 20714.8701 5.628722-32228 3102  677
 20732.8401 5.898042-3 20750.8101 6.196441-3 20768.7801 6.528083-32228 3102  678
 20786.7526 6.897754-3 20804.7264 7.311687-3 20822.7000 7.776353-32228 3102  679
 20837.0776 8.189956-3 20851.4551 8.647762-3 20865.8326 9.157586-32228 3102  680
 20880.2101 9.723600-3 20894.5876 1.035535-2 20908.9651 1.106369-22228 3102  681
 20923.3426 1.186152-2 20932.9276 1.245122-2 20942.5126 1.309251-22228 3102  682
 20952.0976 1.378708-2 20961.6826 1.454947-2 20971.2676 1.538781-22228 3102  683
 20980.8526 1.630984-2 20990.4376 1.732695-2 21000.0226 1.845260-22228 3102  684
 21009.6076 1.970267-2 21019.1926 2.109608-2 21026.3814 2.224866-22228 3102  685
 21033.5700 2.350567-2 21040.7589 2.488004-2 21047.9476 2.638555-22228 3102  686
 21054.9363 2.798920-2 21061.5251 2.965126-2 21068.1139 3.147855-22228 3102  687
 21074.7026 3.348476-2 21081.2914 3.569272-2 21087.8800 3.813040-22228 3102  688
 21093.8726 4.058321-2 21099.8651 4.329255-2 21105.8576 4.629022-22228 3102  689
 21111.8501 4.961680-2 21117.8426 5.332398-2 21123.8326 5.746989-22228 3102  690
 21127.8251 6.051062-2 21131.8176 6.380088-2 21135.8101 6.736931-22228 3102  691
 21139.8026 7.124820-2 21143.7951 7.547345-2 21147.7876 8.008585-22228 3102  692
 21151.7800 8.512988-2 21156.1751 9.124607-2 21160.5700 9.804029-22228 3102  693
 21163.8664 1.036428-1 21167.1626 1.097326-1 21169.3600 1.140901-12228 3102  694
 21173.3526 1.226859-1 21176.3470 1.297709-1 21179.3414 1.374698-12228 3102  695
 21182.3358 1.458526-1 21185.3300 1.549975-1 21188.3264 1.650014-12228 3102  696
 21191.3226 1.759585-1 21194.3189 1.879849-1 21197.3151 2.012126-12228 3102  697
 21200.3113 2.157950-1 21203.3063 2.318993-1 21206.3008 2.497254-12228 3102  698
 21209.2951 2.694966-1 21212.2895 2.914650-1 21215.2838 3.159101-12228 3102  699
 21218.1788 3.421967-1 21220.8751 3.693026-1 21223.5714 3.992186-12228 3102  700
 21226.2676 4.322252-1 21228.9639 4.686050-1 21231.6600 5.086202-12228 3102  701
 21234.2964 5.514821-1 21236.9326 5.981749-1 21239.5689 6.487297-12228 3102  702
 21242.2051 7.030036-1 21245.7200 7.804628-1 21254.6626 9.887136-12228 3102  703
 21257.5376 1.051060+0 21259.9339 1.097509+0 21262.3300 1.136840+02228 3102  704
 21264.7264 1.167204+0 21266.3239 1.181679+0 21267.9213 1.191119+02228 3102  705
 21269.9700 1.195500+0 21272.0776 1.190793+0 21274.2339 1.176521+02228 3102  706
 21276.3900 1.153317+0 21278.7864 1.118259+0 21281.1826 1.075125+02228 3102  707
 21283.8988 1.018905+0 21287.2550 9.427530-1 21294.2464 7.792473-12228 3102  708
 21297.6014 7.051950-1 21300.1176 6.531238-1 21302.6339 6.044263-12228 3102  709
 21305.1500 5.592441-1 21307.8445 5.147430-1 21310.5389 4.741316-12228 3102  710
 21313.2333 4.371958-1 21315.9276 4.036782-1 21318.6220 3.732963-12228 3102  711
 21321.5176 3.438191-1 21323.5151 3.252287-1 21326.5114 2.997531-12228 3102  712
 21329.5076 2.768801-1 21332.5039 2.563122-1 21335.5000 2.377900-12228 3102  713
 21338.0951 2.232212-1 21340.6901 2.098766-1 21343.2851 1.976273-12228 3102  714
 21345.8800 1.863597-1 21348.4751 1.759753-1 21351.0701 1.663917-12228 3102  715
 21353.6651 1.575356-1 21356.2600 1.493420-1 21359.0563 1.411850-12228 3102  716
 21361.8526 1.336598-1 21364.6489 1.267050-1 21368.8433 1.172264-12228 3102  717
 21373.0376 1.087536-1 21377.2320 1.011515-1 21380.4270 9.587404-22228 3102  718
 21384.0208 9.040960-2 21387.6145 8.539485-2 21391.2083 8.078407-22228 3102  719
 21394.8020 7.653524-2 21398.3958 7.261110-2 21403.7863 6.726655-22228 3102  720
 21407.3800 6.402583-2 21411.7738 6.037391-2 21416.1676 5.702839-22228 3102  721
 21420.5614 5.395587-2 21424.9551 5.112734-2 21429.3489 4.851885-22228 3102  722
 21433.7426 4.611116-2 21440.3332 4.283138-2 21447.3226 3.972198-22228 3102  723
 21454.5114 3.686884-2 21461.7000 3.432002-2 21468.8889 3.203412-22228 3102  724
 21476.0776 2.997654-2 21483.2663 2.811804-2 21490.4551 2.643393-22228 3102  725
 21497.6439 2.490318-2 21504.8326 2.350787-2 21512.0214 2.223254-22228 3102  726
 21519.2100 2.106395-2 21528.7951 1.965209-2 21538.3800 1.838642-22228 3102  727
 21547.9651 1.724752-2 21557.5500 1.621910-2 21567.1351 1.528739-22228 3102  728
 21576.7200 1.444071-2 21586.3051 1.366908-2 21595.8900 1.296429-22228 3102  729
 21607.0726 1.222065-2 21618.2550 1.154260-2 21629.4376 1.092593-22228 3102  730
 21640.6200 1.036418-2 21654.9976 9.712614-3 21669.3751 9.130278-32228 3102  731
 21683.7526 8.605997-3 21698.1300 8.136435-3 21712.5076 7.713262-32228 3102  732
 21729.2801 7.269989-3 21747.2501 6.846227-3 21765.2200 6.470737-32228 3102  733
 21783.1939 6.138473-3 21801.1676 5.845989-3 21818.1426 5.605646-32228 3102  734
 21833.1201 5.422557-3 21848.0976 5.277484-3 21857.3326 5.213450-32228 3102  735
 21865.8176 5.179540-3 21870.0600 5.174974-3 21876.8001 5.194230-32228 3102  736
 21881.8551 5.239438-3 21885.2251 5.290667-3 21888.5951 5.365613-32228 3102  737
 21891.9651 5.473875-3 21894.4926 5.585715-3 21897.0200 5.734163-32228 3102  738
 21898.6113 5.852617-3 21900.2026 5.996299-3 21901.7939 6.172337-32228 3102  739
 21903.3851 6.390917-3 21904.5786 6.591843-3 21905.7720 6.835265-32228 3102  740
 21906.5676 7.028617-3 21907.3633 7.254864-3 21908.1588 7.524454-32228 3102  741
 21908.7556 7.764425-3 21909.3523 8.047124-3 21909.9495 8.386272-32228 3102  742
 21910.3483 8.652951-3 21910.7470 8.959940-3 21911.1458 9.316074-32228 3102  743
 21911.5445 9.732276-3 21911.8436 1.009183-2 21912.1426 1.049910-22228 3102  744
 21912.4418 1.096231-2 21912.7408 1.148986-2 21913.0398 1.209237-22228 3102  745
 21913.3389 1.278139-2 21913.6380 1.357053-2 21913.9371 1.447455-22228 3102  746
 21914.1364 1.514941-2 21914.3358 1.588872-2 21914.5351 1.669792-22228 3102  747
 21914.7345 1.758457-2 21914.9339 1.855448-2 21915.1333 1.961580-22228 3102  748
 21915.3326 2.077562-2 21915.5320 2.204373-2 21915.7313 2.342770-22228 3102  749
 21915.9307 2.493804-2 21916.1300 2.658358-2 21916.3645 2.870812-22228 3102  750
 21916.5988 3.105256-2 21916.8333 3.363740-2 21917.0676 3.648089-22228 3102  751
 21917.3020 3.960668-2 21917.5364 4.303345-2 21917.7708 4.678564-22228 3102  752
 21918.0050 5.088362-2 21918.2395 5.535548-2 21918.4739 6.021992-22228 3102  753
 21918.7083 6.550363-2 21918.9426 7.122660-2 21919.1770 7.741756-22228 3102  754
 21919.4113 8.409320-2 21919.6457 9.127925-2 21919.8800 9.899141-22228 3102  755
 21920.1042 1.068847-1 21920.3283 1.152890-1 21920.6270 1.273212-12228 3102  756
 21920.9258 1.403184-1 21921.2245 1.542999-1 21921.5233 1.692741-12228 3102  757
 21921.8220 1.852374-1 21922.1207 2.021768-1 21922.4863 2.242024-12228 3102  758
 21922.9189 2.519969-1 21923.3514 2.815025-1 21923.8920 3.204157-12228 3102  759
 21924.6151 3.749540-1 21925.7150 4.592729-1 21926.4001 5.094254-12228 3102  760
 21927.0000 5.497722-1 21927.4651 5.777620-1 21927.8600 5.987413-12228 3102  761
 21928.3001 6.186246-1 21928.6551 6.316991-1 21929.0700 6.433464-12228 3102  762
 21929.4900 6.509192-1 21929.9450 6.541558-1 21930.0000 6.541921-12228 3102  763
 21930.4150 6.519951-1 21930.8200 6.456876-1 21931.1900 6.364353-12228 3102  764
 21931.5000 6.262258-1 21931.9000 6.099400-1 21932.3800 5.861674-12228 3102  765
 21932.8451 5.592825-1 21933.4001 5.231291-1 21934.0426 4.771810-12228 3102  766
 21935.0776 3.983824-1 21936.0000 3.282095-1 21936.5408 2.889020-12228 3102  767
 21936.9733 2.590114-1 21937.4058 2.307781-1 21937.7300 2.108181-12228 3102  768
 21938.0051 1.947452-1 21938.2801 1.794953-1 21938.5551 1.650756-12228 3102  769
 21938.8301 1.515011-1 21939.1051 1.387601-1 21939.3801 1.268555-12228 3102  770
 21939.6551 1.157664-1 21939.9300 1.054791-1 21940.1651 9.729617-22228 3102  771
 21940.4001 8.966417-2 21940.6351 8.255868-2 21940.8701 7.596322-22228 3102  772
 21941.1051 6.984953-2 21941.3401 6.420071-2 21941.5751 5.898957-22228 3102  773
 21941.8101 5.419557-2 21942.0451 4.978968-2 21942.2801 4.575326-22228 3102  774
 21942.5151 4.206020-2 21942.7501 3.868981-2 21942.9851 3.561657-22228 3102  775
 21943.2201 3.282185-2 21943.4551 3.028296-2 21943.6900 2.798153-22228 3102  776
 21943.8695 2.637064-2 21944.0488 2.487936-2 21944.2283 2.349866-22228 3102  777
 21944.4076 2.222228-2 21944.5870 2.104163-2 21944.7664 1.995154-22228 3102  778
 21944.9458 1.894474-2 21945.1251 1.801604-2 21945.3943 1.675504-22228 3102  779
 21945.6633 1.563901-2 21945.9324 1.465098-2 21946.2014 1.377674-22228 3102  780
 21946.4705 1.300263-2 21946.7395 1.231711-2 21947.0086 1.170937-22228 3102  781
 21947.2776 1.117042-2 21947.5468 1.069117-2 21947.8158 1.026479-22228 3102  782
 21948.1745 9.766745-3 21948.5333 9.337149-3 21948.8920 8.964745-32228 3102  783
 21949.2507 8.640081-3 21949.7060 8.284515-3 21949.9820 8.094708-32228 3102  784
 21950.5338 7.762290-3 21951.0858 7.480507-3 21951.6376 7.238070-32228 3102  785
 21952.4655 6.930249-3 21953.2933 6.672660-3 21953.8450 6.522272-32228 3102  786
 21954.9489 6.260877-3 21956.0526 6.040431-3 21957.1563 5.851355-32228 3102  787
 21958.7567 5.620111-3 21960.2463 5.440167-3 21962.2326 5.240283-32228 3102  788
 21964.2189 5.075212-3 21966.2051 4.936580-3 21969.1845 4.765695-32228 3102  789
 21972.1638 4.627673-3 21974.1500 4.549382-3 21978.4851 4.406699-32228 3102  790
 21982.8201 4.292251-3 21989.3226 4.155896-3 21995.8251 4.048004-32228 3102  791
 22004.4951 3.932691-3 22015.0538 3.817815-3 22027.5014 3.706354-32228 3102  792
 22046.1726 3.570449-3 22068.5776 3.433373-3 22088.4926 3.328434-32228 3102  793
 22118.3701 3.191555-3 22153.2251 3.055490-3 22198.0300 2.907928-32228 3102  794
 22237.8600 2.796497-3 22277.7000 2.700357-3 22317.5300 2.617009-32228 3102  795
 22357.3600 2.544534-3 22417.1050 2.453570-3 22476.8500 2.378683-32228 3102  796
 22536.6050 2.319104-3 22596.3500 2.270865-3 22636.1800 2.244967-32228 3102  797
 22702.0400 2.211354-3 22767.9000 2.188148-3 22833.7600 2.174675-32228 3102  798
 22899.6200 2.170816-3 22973.7126 2.179258-3 23031.3400 2.198913-32228 3102  799
 23076.6201 2.229869-3 23101.3201 2.259873-3 23118.8151 2.293075-32228 3102  800
 23134.2500 2.336516-3 23144.5401 2.380735-3 23152.2576 2.426867-32228 3102  801
 23158.4138 2.475821-3 23163.7895 2.532370-3 23167.3733 2.580190-32228 3102  802
 23170.9570 2.639047-3 23174.5408 2.712725-3 23177.2286 2.781020-32228 3102  803
 23179.9163 2.864233-3 23182.6042 2.967275-3 23184.3213 3.046659-32228 3102  804
 23185.9639 3.135212-3 23187.6064 3.239111-3 23189.2489 3.362327-32228 3102  805
 23190.4808 3.470626-3 23191.7126 3.595925-3 23192.9445 3.742442-32228 3102  806
 23194.1764 3.916132-3 23194.9976 4.051321-3 23195.8188 4.206526-32228 3102  807
 23196.6400 4.387528-3 23197.3245 4.564325-3 23198.0089 4.772483-32228 3102  808
 23198.4651 4.933856-3 23198.9214 5.118316-3 23199.3776 5.331387-32228 3102  809
 23199.8339 5.580346-3 23200.1761 5.796068-3 23200.5183 6.041899-32228 3102  810
 23200.8605 6.323658-3 23201.2026 6.648008-3 23201.5449 7.023422-32228 3102  811
 23201.7730 7.306570-3 23202.0011 7.619802-3 23202.2292 7.966830-32228 3102  812
 23202.4574 8.351706-3 23202.6855 8.778806-3 23202.9136 9.253057-32228 3102  813
 23203.1417 9.779979-3 23203.3698 1.036557-2 23203.5980 1.101629-22228 3102  814
 23203.8260 1.173930-2 23204.0542 1.254267-2 23204.2823 1.343496-22228 3102  815
 23204.5105 1.442514-2 23204.7386 1.552317-2 23204.9667 1.673996-22228 3102  816
 23205.1949 1.808708-2 23205.4230 1.957664-2 23205.6511 2.122179-22228 3102  817
 23205.8222 2.256645-2 23205.9933 2.401264-2 23206.2214 2.611022-22228 3102  818
 23206.4495 2.841657-2 23206.6776 3.094684-2 23206.9058 3.372104-22228 3102  819
 23207.1338 3.675460-2 23207.3620 4.006813-2 23207.5900 4.367856-22228 3102  820
 23207.7726 4.679780-2 23207.9551 5.012917-2 23208.1376 5.368556-22228 3102  821
 23208.3201 5.747423-2 23208.5026 6.151016-2 23208.6851 6.579860-22228 3102  822
 23208.9589 7.273254-2 23209.2326 8.029404-2 23209.5064 8.851703-22228 3102  823
 23209.7801 9.742408-2 23210.0539 1.070527-1 23210.3276 1.174140-12228 3102  824
 23210.6357 1.299853-1 23210.8870 1.409615-1 23211.1383 1.525938-12228 3102  825
 23211.3895 1.648839-1 23211.7664 1.845474-1 23212.1433 2.056568-12228 3102  826
 23212.5200 2.281408-1 23212.9301 2.540782-1 23213.4426 2.883982-12228 3102  827
 23213.9551 3.244275-1 23215.8050 4.595046-1 23216.4626 5.048159-12228 3102  828
 23217.0100 5.393843-1 23217.4451 5.640859-1 23217.8450 5.841772-12228 3102  829
 23218.2850 6.029657-1 23218.6351 6.151768-1 23219.0500 6.262687-12228 3102  830
 23219.4500 6.332967-1 23219.8950 6.367333-1 23220.0000 6.368612-12228 3102  831
 23220.4600 6.343433-1 23220.9100 6.270878-1 23221.3100 6.167949-12228 3102  832
 23221.6400 6.057113-1 23222.0400 5.893405-1 23222.4301 5.705356-12228 3102  833
 23222.8851 5.454703-1 23223.3926 5.141629-1 23223.9400 4.773301-12228 3102  834
 23224.7051 4.224519-1 23226.0538 3.236879-1 23226.6201 2.840138-12228 3102  835
 23227.1326 2.499504-1 23227.5426 2.242549-1 23227.8500 2.060010-12228 3102  836
 23228.1463 1.892727-1 23228.4426 1.734356-1 23228.7389 1.585012-12228 3102  837
 23229.0350 1.444861-1 23229.3314 1.313797-1 23229.6276 1.191830-12228 3102  838
 23229.9238 1.078733-1 23230.1460 9.996067-2 23230.4257 9.067482-22228 3102  839
 23230.6313 8.431255-2 23230.8370 7.832920-2 23231.0426 7.271628-22228 3102  840
 23231.2483 6.745436-2 23231.4539 6.253539-2 23231.6595 5.794142-22228 3102  841
 23231.8651 5.366120-2 23232.0708 4.967475-2 23232.2764 4.597263-22228 3102  842
 23232.4820 4.253739-2 23232.6876 3.935695-2 23232.8933 3.641361-22228 3102  843
 23233.0988 3.369663-2 23233.3045 3.119028-2 23233.5100 2.888305-22228 3102  844
 23233.7323 2.659516-2 23233.9545 2.450952-2 23234.1767 2.260928-22228 3102  845
 23234.3989 2.088115-2 23234.6211 1.931046-2 23234.8433 1.788528-22228 3102  846
 23235.0655 1.659302-2 23235.2876 1.542350-2 23235.5099 1.436441-22228 3102  847
 23235.7320 1.340754-2 23235.9542 1.254274-2 23236.1764 1.176189-22228 3102  848
 23236.3986 1.105682-2 23236.6208 1.042078-2 23236.8430 9.846789-32228 3102  849
 23237.0651 9.329185-3 23237.2874 8.861513-3 23237.5095 8.439552-32228 3102  850
 23237.6576 8.181239-3 23237.9538 7.713707-3 23238.2500 7.304612-32228 3102  851
 23238.5010 6.997498-3 23238.7520 6.722304-3 23239.1285 6.360876-32228 3102  852
 23239.5049 6.051614-3 23239.8813 5.785307-3 23240.2576 5.554567-32228 3102  853
 23240.6341 5.353001-3 23241.0105 5.175795-3 23241.5124 4.970285-32228 3102  854
 23242.0142 4.793042-3 23242.5161 4.638222-3 23243.2689 4.438702-32228 3102  855
 23244.0217 4.269246-3 23244.7745 4.122708-3 23245.7782 3.954684-32228 3102  856
 23246.8048 3.807934-3 23247.8542 3.678464-3 23248.9036 3.565715-32228 3102  857
 23250.4776 3.421621-3 23252.0517 3.301287-3 23253.6258 3.199621-32228 3102  858
 23255.7245 3.086745-3 23257.8233 2.994029-3 23259.9220 2.916907-32228 3102  859
 23263.0700 2.823436-3 23266.4329 2.745466-3 23269.7958 2.683985-32228 3102  860
 23274.2795 2.620574-3 23278.7633 2.572440-3 23285.4889 2.519526-32228 3102  861
 23289.9726 2.493319-3 23298.9400 2.456103-3 23309.9401 2.427933-32228 3102  862
 23326.4401 2.405987-3 23342.9400 2.398724-3 23375.9326 2.406287-32228 3102  863
 23403.4301 2.424805-3 23452.9300 2.476375-3 23496.9300 2.537770-32228 3102  864
 23540.9300 2.614519-3 23584.9200 2.709313-3 23617.9201 2.795787-32228 3102  865
 23643.0226 2.873509-3 23657.1250 2.921199-3 23690.6188 3.056035-32228 3102  866
 23706.4850 3.135557-3 23719.7070 3.216593-3 23727.6400 3.281117-32228 3102  867
 23733.4370 3.347350-3 23735.7558 3.384990-3 23737.4948 3.424808-32228 3102  868
 23738.6542 3.464422-3 23739.5238 3.508072-3 23740.3933 3.572947-32228 3102  869
 23740.9730 3.634788-3 23741.5526 3.718560-3 23741.9875 3.800853-32228 3102  870
 23742.4222 3.904818-3 23742.8570 4.036177-3 23743.1469 4.142327-32228 3102  871
 23743.4367 4.266085-3 23743.7265 4.410150-3 23744.0164 4.577587-32228 3102  872
 23744.3062 4.771796-3 23744.5961 4.996512-3 23744.8859 5.255895-32228 3102  873
 23745.1757 5.554562-3 23745.3931 5.807391-3 23745.6104 6.087206-32228 3102  874
 23745.8279 6.396863-3 23746.0452 6.738441-3 23746.2743 7.136375-32228 3102  875
 23746.5270 7.623974-3 23746.7797 8.167477-3 23747.0324 8.771429-32228 3102  876
 23747.2850 9.441152-3 23747.5376 1.018133-2 23747.7904 1.099853-22228 3102  877
 23748.0430 1.189699-2 23748.2957 1.288283-2 23748.5483 1.396112-22228 3102  878
 23748.8009 1.513798-2 23749.0536 1.641834-2 23749.3063 1.780784-22228 3102  879
 23749.5589 1.931015-2 23749.8116 2.093188-2 23750.0642 2.267504-22228 3102  880
 23750.3169 2.454462-2 23750.5695 2.654301-2 23750.8222 2.867347-22228 3102  881
 23751.1591 3.172066-2 23751.4959 3.500492-2 23751.7407 3.754065-22228 3102  882
 23752.0620 4.105411-2 23752.3833 4.477191-2 23752.8651 5.070794-22228 3102  883
 23753.3470 5.703494-2 23753.9895 6.595616-2 23755.7863 9.200589-22228 3102  884
 23756.3126 9.928082-2 23756.8976 1.067917-1 23757.3526 1.120594-12228 3102  885
 23757.8400 1.170065-1 23758.2301 1.203650-1 23758.5501 1.226782-12228 3102  886
 23758.9900 1.251578-1 23759.4351 1.267918-1 23759.8950 1.275177-12228 3102  887
 23760.0000 1.275440-1 23760.4200 1.271297-1 23760.8200 1.259701-12228 3102  888
 23761.1701 1.243595-1 23761.5050 1.223186-1 23761.9601 1.188115-12228 3102  889
 23762.3976 1.147092-1 23762.9300 1.088761-1 23763.5151 1.015959-12228 3102  890
 23764.1000 9.364508-2 23765.0101 8.053405-2 23766.0420 6.557706-22228 3102  891
 23766.6514 5.713543-2 23767.1389 5.074552-2 23767.5046 4.621112-22228 3102  892
 23767.8701 4.192473-2 23768.2358 3.789800-2 23768.6014 3.414607-22228 3102  893
 23768.9670 3.067245-2 23769.2108 2.851218-2 23769.4545 2.647574-22228 3102  894
 23769.6982 2.456157-2 23769.9246 2.289074-2 23770.2382 2.074329-22228 3102  895
 23770.4473 1.941584-2 23770.6563 1.816985-2 23770.8655 1.700142-22228 3102  896
 23771.0745 1.590907-2 23771.2836 1.488912-2 23771.4926 1.393931-22228 3102  897
 23771.7017 1.305540-2 23771.9108 1.223546-2 23772.1199 1.147573-22228 3102  898
 23772.3289 1.077360-2 23772.5380 1.012524-2 23772.7470 9.528262-32228 3102  899
 23772.9561 8.979199-3 23773.1651 8.475474-3 23773.3742 8.013553-32228 3102  900
 23773.5833 7.591290-3 23773.7924 7.205673-3 23774.0014 6.854377-32228 3102  901
 23774.2105 6.534549-3 23774.4195 6.244173-3 23774.6286 5.980780-32228 3102  902
 23774.8376 5.742420-3 23775.1513 5.426978-3 23775.4649 5.156961-32228 3102  903
 23775.7785 4.926472-3 23776.0920 4.730438-3 23776.4056 4.564154-32228 3102  904
 23776.7192 4.423568-3 23776.9283 4.342308-3 23777.3464 4.205385-32228 3102  905
 23777.7645 4.097055-3 23778.1826 4.011708-3 23778.8099 3.916776-32228 3102  906
 23779.4370 3.851048-3 23780.2733 3.793883-3 23781.1095 3.758938-32228 3102  907
 23782.3638 3.729962-3 23784.3200 3.711221-3 23787.0376 3.705709-32228 3102  908
 23792.4726 3.720415-3 23800.6251 3.769318-3 23811.4951 3.858326-32228 3102  909
 23827.8000 4.024430-3 23838.9501 4.157085-3 23850.1001 4.306990-32228 3102  910
 23861.2501 4.475230-3 23872.4000 4.664596-3 23883.5501 4.878725-32228 3102  911
 23894.7000 5.122047-3 23905.8501 5.400138-3 23914.2126 5.635698-32228 3102  912
 23922.0176 5.879954-3 23929.5439 6.141190-3 23937.0700 6.431226-32228 3102  913
 23944.5964 6.753371-3 23952.1226 7.114727-3 23959.6488 7.522819-32228 3102  914
 23967.1751 7.984826-3 23974.7014 8.510649-3 23979.7189 8.902674-32228 3102  915
 23984.7364 9.332974-3 23989.7539 9.806743-3 23994.7713 1.033009-22228 3102  916
 23999.2870 1.084943-2 24003.3008 1.135463-2 24007.3145 1.190597-22228 3102  917
 24011.3283 1.250905-2 24015.3420 1.317048-2 24019.3558 1.389868-22228 3102  918
 24023.3695 1.470383-2 24027.3832 1.559710-2 24030.8395 1.644637-22228 3102  919
 24035.1876 1.763564-2 24038.0864 1.851398-2 24040.9850 1.946998-22228 3102  920
 24043.8839 2.051284-2 24046.7826 2.165342-2 24049.6813 2.290511-22228 3102  921
 24052.5800 2.428357-2 24055.9251 2.605563-2 24058.1551 2.735984-22228 3102  922
 24060.3851 2.877520-2 24062.6151 3.031460-2 24064.8451 3.199291-22228 3102  923
 24067.0751 3.382732-2 24069.3051 3.583783-2 24071.3126 3.781757-22228 3102  924
 24073.9901 4.074399-2 24075.7751 4.290134-2 24077.5601 4.524596-22228 3102  925
 24079.3451 4.780046-2 24081.1301 5.059021-2 24082.9151 5.364512-22228 3102  926
 24084.7000 5.699938-2 24086.1488 5.996978-2 24087.5976 6.318845-22228 3102  927
 24089.0464 6.668411-2 24090.4951 7.048910-2 24091.9439 7.464182-22228 3102  928
 24093.3926 7.918547-2 24094.8413 8.417144-2 24096.2900 8.965858-22228 3102  929
 24097.9626 9.670924-2 24099.0776 1.018942-1 24100.1926 1.075177-12228 3102  930
 24101.3076 1.136301-1 24102.4226 1.202893-1 24103.5376 1.275612-12228 3102  931
 24104.6526 1.355221-1 24105.6563 1.433514-1 24106.5489 1.509023-12228 3102  932
 24107.4414 1.590691-1 24108.3339 1.679189-1 24109.2264 1.775281-12228 3102  933
 24110.1189 1.879831-1 24111.0114 1.993817-1 24111.9038 2.118354-12228 3102  934
 24112.7401 2.245751-1 24113.5201 2.374985-1 24114.3001 2.515357-12228 3102  935
 24115.0801 2.668070-1 24115.8601 2.834478-1 24116.6401 3.016072-12228 3102  936
 24117.4201 3.214495-1 24118.2001 3.431555-1 24118.8970 3.642869-12228 3102  937
 24119.8176 3.949832-1 24120.4314 4.173740-1 24121.0451 4.414344-12228 3102  938
 24121.6589 4.672907-1 24122.2726 4.950508-1 24122.8863 5.248365-12228 3102  939
 24123.7788 5.719833-1 24124.6151 6.205146-1 24125.4514 6.734598-12228 3102  940
 24126.2876 7.309161-1 24127.1239 7.928863-1 24127.9600 8.592085-12228 3102  941
 24128.9176 9.401023-1 24130.3539 1.069489+0 24133.1289 1.329757+02228 3102  942
 24134.4676 1.447822+0 24135.3600 1.518936+0 24136.2550 1.581590+02228 3102  943
 24137.1500 1.633485+0 24138.0400 1.672639+0 24138.7076 1.692986+02228 3102  944
 24139.4201 1.705634+0 24140.0000 1.708806+0 24140.5076 1.706286+02228 3102  945
 24141.2426 1.693950+0 24142.0551 1.668723+0 24142.9451 1.628033+02228 3102  946
 24143.6801 1.585133+0 24144.5501 1.524966+0 24145.4201 1.456416+02228 3102  947
 24146.6251 1.351405+0 24149.8713 1.047987+0 24150.8739 9.577135-12228 3102  948
 24151.8764 8.721161-1 24152.8788 7.922014-1 24153.6588 7.343371-12228 3102  949
 24154.4951 6.766566-1 24155.3314 6.234867-1 24156.1676 5.747358-12228 3102  950
 24157.0039 5.302124-1 24157.8400 4.896842-1 24158.5088 4.599497-12228 3102  951
 24159.1776 4.324440-1 24159.8464 4.070088-1 24160.5151 3.834990-12228 3102  952
 24161.1839 3.617606-1 24161.8526 3.416610-1 24162.5213 3.230630-12228 3102  953
 24163.1900 3.058464-1 24163.9713 2.873213-1 24164.7526 2.703542-12228 3102  954
 24165.5339 2.547886-1 24166.3151 2.404896-1 24167.0964 2.273291-12228 3102  955
 24167.8776 2.152001-1 24168.6588 2.040011-1 24169.4400 1.936456-12228 3102  956
 24170.4426 1.814628-1 24171.4451 1.703916-1 24172.4476 1.603030-12228 3102  957
 24173.4500 1.510882-1 24174.4526 1.426493-1 24175.4551 1.349048-12228 3102  958
 24176.4576 1.277806-1 24177.4600 1.212141-1 24178.5751 1.144959-12228 3102  959
 24179.6901 1.083312-1 24180.8051 1.026606-1 24181.9201 9.743390-22228 3102  960
 24183.5926 9.032798-2 24185.2651 8.399201-2 24186.3800 8.014199-22228 3102  961
 24187.9413 7.519329-2 24189.5026 7.070364-2 24191.0639 6.661740-22228 3102  962
 24192.6250 6.288790-2 24194.1864 5.947433-2 24195.7476 5.634256-22228 3102  963
 24197.3088 5.346232-2 24198.8700 5.080780-2 24200.8776 4.768930-22228 3102  964
 24202.8851 4.486453-2 24204.8926 4.229767-2 24206.9001 3.995849-22228 3102  965
 24208.9076 3.782065-2 24210.9151 3.586194-2 24212.9226 3.406280-22228 3102  966
 24214.9300 3.240650-2 24217.6063 3.039527-2 24220.2826 2.858231-22228 3102  967
 24222.9589 2.694266-2 24225.6351 2.545537-2 24228.3114 2.410206-22228 3102  968
 24230.9876 2.286682-2 24233.6638 2.173560-2 24236.3400 2.069672-22228 3102  969
 24239.9076 1.943878-2 24243.4751 1.830874-2 24247.0426 1.729019-22228 3102  970
 24250.6100 1.636886-2 24254.1776 1.553271-2 24257.7451 1.477209-22228 3102  971
 24261.3126 1.407863-2 24264.8800 1.344462-2 24269.8976 1.264015-22228 3102  972
 24274.9151 1.192373-2 24279.9326 1.128332-2 24284.9500 1.070889-22228 3102  973
 24289.9676 1.019179-2 24294.9851 9.724738-3 24300.0026 9.301552-32228 3102  974
 24307.5288 8.737754-3 24315.0551 8.246413-3 24322.5814 7.816364-32228 3102  975
 24330.1076 7.439094-3 24337.6339 7.104118-3 24345.1600 6.805558-32228 3102  976
 24353.5226 6.511416-3 24361.8851 6.251282-3 24373.0351 5.949094-32228 3102  977
 24384.1851 5.689622-3 24395.3351 5.465599-3 24406.4851 5.271250-32228 3102  978
 24417.6351 5.101944-3 24434.3600 4.886953-3 24451.0851 4.712351-32228 3102  979
 24467.8101 4.565628-3 24478.9600 4.481649-3 24500.6751 4.345941-32228 3102  980
 24522.3900 4.239065-3 24548.7000 4.141266-3 24575.0100 4.069256-32228 3102  981
 24605.3101 4.012162-3 24635.6100 3.976868-3 24681.0500 3.955326-32228 3102  982
 24688.6300 3.954886-3 24726.5000 3.964592-3 24771.9450 3.999079-32228 3102  983
 24817.3900 4.048189-3 24877.9800 4.141242-3 24938.5800 4.259352-32228 3102  984
 24999.1800 4.400365-3 25059.7700 4.563398-3 25120.3600 4.748280-32228 3102  985
 25180.9600 4.955932-3 25241.5500 5.187876-3 25302.1500 5.445812-32228 3102  986
 25362.7500 5.732168-3 25423.3400 6.049945-3 25483.9400 6.402813-32228 3102  987
 25544.5300 6.795140-3 25605.1200 7.232173-3 25665.7200 7.720175-32228 3102  988
 25726.3100 8.266598-3 25771.7601 8.721133-3 25817.2101 9.215872-32228 3102  989
 25862.6576 9.760385-3 25908.1000 1.035549-2 25953.5426 1.101365-22228 3102  990
 25998.9901 1.173654-2 26044.4376 1.254038-2 26089.8800 1.342797-22228 3102  991
 26135.3301 1.442114-2 26165.6276 1.514472-2 26195.9226 1.592472-22228 3102  992
 26226.2201 1.676684-2 26256.5201 1.767729-2 26292.8800 1.886438-22228 3102  993
 26327.7226 2.012097-2 26354.9876 2.119673-2 26380.7401 2.228791-22228 3102  994
 26417.1000 2.396937-2 26441.3351 2.519611-2 26465.5700 2.651561-22228 3102  995
 26489.8101 2.793620-2 26514.0500 2.946779-2 26538.2900 3.112149-22228 3102  996
 26562.5300 3.290984-2 26586.7651 3.484706-2 26611.0000 3.694841-22228 3102  997
 26635.2401 3.923337-2 26659.4800 4.172310-2 26683.7150 4.444252-22228 3102  998
 26707.9500 4.741647-2 26732.1901 5.068691-2 26756.4300 5.430728-22228 3102  999
 26780.6701 5.833174-2 26798.8501 6.166254-2 26815.5126 6.498715-22228 3102 1000
 26831.4164 6.844474-2 26847.3200 7.223491-2 26863.2276 7.641598-22228 3102 1001
 26879.1351 8.106784-2 26895.0426 8.629798-2 26905.6476 9.017558-22228 3102 1002
 26916.2526 9.442886-2 26926.8576 9.912653-2 26937.4613 1.043551-12228 3102 1003
 26948.0639 1.102236-1 26958.6664 1.168643-1 26966.6183 1.224559-12228 3102 1004
 26974.5700 1.286709-1 26982.5239 1.356209-1 26990.4776 1.434362-12228 3102 1005
 26998.4314 1.522764-1 27006.3851 1.623330-1 27011.6876 1.698246-12228 3102 1006
 27016.9900 1.780356-1 27022.2913 1.870505-1 27027.5926 1.969654-12228 3102 1007
 27032.8939 2.078828-1 27038.1950 2.199097-1 27043.4964 2.331558-12228 3102 1008
 27048.7976 2.477237-1 27054.0988 2.636926-1 27059.4000 2.811065-12228 3102 1009
 27065.4601 3.028287-1 27071.5200 3.264169-1 27080.6101 3.645110-12228 3102 1010
 27092.7339 4.164120-1 27098.1900 4.378293-1 27102.7314 4.535246-12228 3102 1011
 27107.2726 4.665032-1 27110.3000 4.733084-1 27114.7251 4.801948-12228 3102 1012
 27118.0438 4.827706-1 27120.1200 4.832043-1 27122.9351 4.823295-12228 3102 1013
 27127.1051 4.779932-1 27131.4182 4.699301-1 27135.8745 4.582626-12228 3102 1014
 27140.3308 4.438188-1 27147.0151 4.184337-1 27166.9901 3.350103-12228 3102 1015
 27173.4400 3.099915-1 27179.0251 2.899875-1 27184.6100 2.716198-12228 3102 1016
 27190.1951 2.548768-1 27195.7800 2.397025-1 27200.6126 2.277620-12228 3102 1017
 27205.4451 2.168448-1 27210.2776 2.068698-1 27217.5264 1.934928-12228 3102 1018
 27224.7751 1.817794-1 27232.0238 1.714930-1 27239.2726 1.624287-12228 3102 1019
 27246.5214 1.544207-1 27253.7700 1.472966-1 27261.0189 1.408946-12228 3102 1020
 27268.2676 1.351286-1 27278.4701 1.279292-1 27289.2101 1.213052-12228 3102 1021
 27299.9501 1.154676-1 27310.6901 1.102675-1 27321.4301 1.055902-12228 3102 1022
 27337.5400 9.936086-2 27353.6501 9.386912-2 27371.9076 8.833553-22228 3102 1023
 27391.2389 8.310230-2 27410.5700 7.837662-2 27429.9014 7.404453-22228 3102 1024
 27449.2326 7.005135-2 27475.0101 6.517237-2 27500.7901 6.072812-22228 3102 1025
 27526.5676 5.666291-2 27552.3426 5.293211-2 27579.1901 4.936638-22228 3102 1026
 27607.1101 4.597711-2 27631.8101 4.321607-2 27664.0300 3.991864-22228 3102 1027
 27696.2501 3.694611-2 27728.4700 3.425076-2 27760.6901 3.181654-22228 3102 1028
 27792.9100 2.960500-2 27825.1301 2.760311-2 27857.3501 2.577998-22228 3102 1029
 27889.5701 2.412515-2 27921.7900 2.261397-2 27954.0101 2.123814-22228 3102 1030
 27986.2300 1.997807-2 28018.4501 1.882726-2 28050.6700 1.777012-22228 3102 1031
 28082.8901 1.680161-2 28109.7401 1.605358-2 28158.0700 1.483238-22228 3102 1032
 28201.0300 1.386235-2 28243.9900 1.298914-2 28286.9500 1.220129-22228 3102 1033
 28329.9100 1.148894-2 28372.8700 1.084356-2 28415.8300 1.025781-22228 3102 1034
 28458.7800 9.725313-3 28501.7400 9.240512-3 28544.7000 8.798623-32228 3102 1035
 28587.6600 8.395457-3 28630.6200 8.027369-3 28673.5800 7.691188-32228 3102 1036
 28716.5400 7.384156-3 28759.5000 7.103873-3 28802.4600 6.848268-32228 3102 1037
 28866.9001 6.508810-3 28931.3400 6.212984-3 28995.7801 5.962899-32228 3102 1038
 29060.2200 5.750549-3 29124.6600 5.579628-3 29189.1000 5.444856-32228 3102 1039
 29232.0600 5.377805-3 29275.0200 5.329159-3 29317.9700 5.300085-32228 3102 1040
 29360.9300 5.292252-3 29403.8901 5.307984-3 29446.8500 5.350439-32228 3102 1041
 29489.8100 5.423897-3 29543.5101 5.567416-3 29575.7300 5.687671-32228 3102 1042
 29607.9501 5.839811-3 29640.1701 6.028393-3 29672.3901 6.263275-32228 3102 1043
 29693.8701 6.449752-3 29715.3501 6.664909-3 29736.8301 6.913567-32228 3102 1044
 29758.3101 7.201667-3 29769.0501 7.361470-3 29790.5300 7.721210-32228 3102 1045
 29806.6401 8.030134-3 29822.7501 8.380279-3 29838.8601 8.776796-32228 3102 1046
 29854.9700 9.227547-3 29871.0801 9.742250-3 29887.1901 1.033281-22228 3102 1047
 29897.9300 1.077591-2 29908.6701 1.126457-2 29919.4100 1.180405-22228 3102 1048
 29931.4751 1.248094-2 29943.5400 1.324479-2 29952.5889 1.388502-22228 3102 1049
 29961.6376 1.459103-2 29970.4376 1.534764-2 29978.7401 1.613373-22228 3102 1050
 29987.0426 1.699981-2 29995.3451 1.795885-2 30003.6476 1.902206-22228 3102 1051
 30011.9500 2.020499-2 30019.7033 2.143431-2 30027.4564 2.280216-22228 3102 1052
 30035.2095 2.432873-2 30042.9626 2.603638-2 30050.7157 2.796034-22228 3102 1053
 30058.0001 3.000008-2 30065.0501 3.222191-2 30069.7501 3.385833-22228 3102 1054
 30074.4501 3.563517-2 30079.1501 3.756860-2 30083.8501 3.967708-22228 3102 1055
 30088.5501 4.198183-2 30092.7795 4.424370-2 30098.4176 4.757251-22228 3102 1056
 30102.1764 5.001608-2 30105.9351 5.266163-2 30109.6939 5.553173-22228 3102 1057
 30113.4526 5.865145-2 30117.2113 6.204892-2 30120.9700 6.575551-22228 3102 1058
 30124.2601 6.928230-2 30127.5501 7.310180-2 30130.8401 7.724599-22228 3102 1059
 30134.1300 8.175037-2 30137.4201 8.665529-2 30140.7101 9.200501-22228 3102 1060
 30144.0001 9.784936-2 30147.2900 1.042442-1 30151.1676 1.125784-12228 3102 1061
 30153.7526 1.186724-1 30156.3376 1.252460-1 30158.9226 1.323450-12228 3102 1062
 30161.5076 1.400184-1 30164.0926 1.483186-1 30166.6776 1.573026-12228 3102 1063
 30170.0851 1.702952-1 30173.2576 1.836912-1 30176.4300 1.984735-12228 3102 1064
 30179.6026 2.147790-1 30182.7751 2.327399-1 30185.9238 2.523250-12228 3102 1065
 30189.0251 2.734196-1 30192.1264 2.963563-1 30195.2276 3.211208-12228 3102 1066
 30198.3289 3.476112-1 30202.9338 3.896056-1 30211.9563 4.750847-12228 3102 1067
 30215.3401 5.048451-1 30218.1601 5.270074-1 30220.9800 5.457694-12228 3102 1068
 30223.8001 5.602513-1 30225.6801 5.671542-1 30227.5601 5.716565-12228 3102 1069
 30229.9601 5.737469-1 30232.4426 5.715200-1 30234.9814 5.647278-12228 3102 1070
 30237.5200 5.536702-1 30240.3401 5.369613-1 30243.1601 5.163929-12228 3102 1071
 30246.3551 4.895867-1 30250.3001 4.532865-1 30258.5208 3.752571-12228 3102 1072
 30262.4683 3.398636-1 30265.4289 3.149646-1 30268.3895 2.916728-12228 3102 1073
 30271.3500 2.700607-1 30274.5226 2.487613-1 30277.6951 2.293261-12228 3102 1074
 30280.8676 2.116504-1 30284.0401 1.956096-1 30287.2126 1.810686-12228 3102 1075
 30290.6201 1.669679-1 30294.1451 1.538671-1 30297.6701 1.421144-12228 3102 1076
 30301.1951 1.315582-1 30304.7201 1.220647-1 30307.0700 1.162652-12228 3102 1077
 30310.1251 1.092948-1 30313.1801 1.029062-1 30316.2351 9.703908-22228 3102 1078
 30319.2900 9.164225-2 30322.3451 8.667070-2 30325.4001 8.208501-22228 3102 1079
 30328.4551 7.784891-2 30331.5100 7.392998-2 30335.2688 6.949993-22228 3102 1080
 30339.0276 6.545713-2 30342.7864 6.175917-2 30346.5451 5.836987-22228 3102 1081
 30350.3039 5.525757-2 30354.0626 5.239448-2 30357.8213 4.975532-22228 3102 1082
 30361.5800 4.731782-2 30366.2801 4.452377-2 30370.9801 4.198119-22228 3102 1083
 30375.6801 3.966142-2 30380.3800 3.753977-2 30385.0801 3.559470-22228 3102 1084
 30389.7801 3.380758-2 30394.4801 3.216203-2 30399.1800 3.064380-22228 3102 1085
 30404.3488 2.910611-2 30409.5176 2.769292-2 30417.2708 2.578096-22228 3102 1086
 30425.0239 2.408350-2 30432.7770 2.256587-2 30440.5300 2.120590-22228 3102 1087
 30448.9901 1.987823-2 30457.4501 1.869164-2 30465.9101 1.762704-22228 3102 1088
 30474.3701 1.666855-2 30482.8301 1.580341-2 30491.7076 1.498342-22228 3102 1089
 30500.7939 1.422347-2 30509.8800 1.353498-2 30521.9951 1.271410-22228 3102 1090
 30534.1100 1.198871-2 30547.5426 1.127930-2 30560.9751 1.065471-22228 3102 1091
 30574.4076 1.010439-2 30587.8400 9.614464-3 30604.6889 9.072402-32228 3102 1092
 30621.5376 8.600706-3 30638.3876 8.188038-3 30655.2401 7.825391-32228 3102 1093
 30672.0926 7.505548-3 30688.9451 7.222558-3 30711.4151 6.894227-32228 3102 1094
 30733.8826 6.613228-3 30756.3476 6.372093-3 30778.8151 6.165115-32228 3102 1095
 30812.5200 5.908305-3 30842.4800 5.723159-3 30872.4400 5.572832-32228 3102 1096
 30902.3950 5.452077-3 30932.3500 5.356838-3 30962.3101 5.283856-32228 3102 1097
 31007.2476 5.211570-3 31052.1800 5.175806-3 31082.1400 5.171464-32228 3102 1098
 31127.0801 5.191697-3 31172.0151 5.240199-3 31216.9501 5.318336-32228 3102 1099
 31261.8900 5.423363-3 31306.8301 5.558139-3 31351.7651 5.721315-32228 3102 1100
 31396.7001 5.917254-3 31441.6400 6.145734-3 31486.5726 6.413049-32228 3102 1101
 31531.5101 6.720062-3 31576.4501 7.075647-3 31621.3900 7.481971-32228 3102 1102
 31651.3450 7.786844-3 31681.3000 8.121340-3 31711.2601 8.488711-32228 3102 1103
 31741.2200 8.892488-3 31771.1751 9.336710-3 31801.1300 9.826258-32228 3102 1104
 31834.8351 1.043597-2 31868.5400 1.111979-2 31902.2451 1.188737-22228 3102 1105
 31935.9500 1.275071-2 31969.6476 1.372426-2 31992.1151 1.444256-22228 3102 1106
 32014.5851 1.522306-2 32037.0551 1.607197-2 32059.5251 1.699634-22228 3102 1107
 32081.9926 1.800406-2 32104.4576 1.910318-2 32126.9251 2.030316-22228 3102 1108
 32149.3951 2.161429-2 32171.8651 2.304713-2 32194.3351 2.461310-22228 3102 1109
 32216.8026 2.632361-2 32239.2676 2.819063-2 32261.7351 3.022569-22228 3102 1110
 32284.2051 3.243759-2 32308.1726 3.499923-2 32333.6376 3.795313-22228 3102 1111
 32358.3526 4.104579-2 32394.3000 4.589119-2 32478.1876 5.784534-22228 3102 1112
 32502.1526 6.098679-2 32526.1176 6.375151-2 32544.0913 6.548385-22228 3102 1113
 32562.0651 6.685299-2 32580.0388 6.780685-2 32596.8151 6.828737-22228 3102 1114
 32607.6000 6.838007-2 32621.9813 6.822894-2 32639.9551 6.761652-22228 3102 1115
 32657.9288 6.655601-2 32675.9051 6.508897-2 32687.8901 6.391135-22228 3102 1116
 32711.8600 6.116426-2 32735.8250 5.802478-2 32773.2701 5.269292-22228 3102 1117
 32825.6951 4.514832-2 32849.6651 4.187707-2 32873.6326 3.878706-22228 3102 1118
 32897.5976 3.590134-2 32920.8151 3.331162-2 32943.2851 3.099413-22228 3102 1119
 32965.7526 2.885933-2 32988.2176 2.689783-2 33010.6851 2.510003-22228 3102 1120
 33033.1551 2.345359-2 33055.6251 2.194685-2 33078.0951 2.056802-22228 3102 1121
 33100.5626 1.930612-2 33123.0276 1.815035-2 33145.4951 1.709076-22228 3102 1122
 33167.9651 1.611883-2 33194.1801 1.508457-2 33209.1600 1.453966-22228 3102 1123
 33239.1200 1.353379-2 33269.0750 1.262900-2 33299.0300 1.181491-22228 3102 1124
 33328.9901 1.108095-2 33358.9500 1.041764-2 33388.9100 9.816752-32228 3102 1125
 33418.8700 9.271177-3 33448.8250 8.774698-3 33478.7800 8.322089-32228 3102 1126
 33508.7401 7.908460-3 33538.7000 7.529767-3 33568.6551 7.182452-32228 3102 1127
 33598.6100 6.863220-3 33643.5501 6.432218-3 33688.4901 6.048380-32228 3102 1128
 33733.4276 5.708663-3 33778.3600 5.404313-3 33823.3001 5.133331-32228 3102 1129
 33868.2351 4.889354-3 33913.1701 4.671063-3 33958.1100 4.473779-32228 3102 1130
 34018.0300 4.241122-3 34077.9400 4.038129-3 34145.3501 3.842420-32228 3102 1131
 34197.7750 3.707891-3 34227.7300 3.636256-3 34287.6500 3.509868-32228 3102 1132
 34347.5600 3.399914-3 34407.4800 3.304685-3 34467.4000 3.222765-32228 3102 1133
 34527.3100 3.152986-3 34587.2300 3.094378-3 34677.1001 3.026550-32228 3102 1134
 34766.9800 2.978529-3 34850.4151 2.953306-3 34938.3200 2.943637-32228 3102 1135
 35028.3951 2.954156-3 35118.4600 2.982928-3 35208.5350 3.033984-32228 3102 1136
 35268.5851 3.079836-3 35328.6350 3.136337-3 35388.6801 3.204371-32228 3102 1137
 35448.7251 3.285033-3 35508.7750 3.379675-3 35568.8250 3.488132-32228 3102 1138
 35628.8751 3.615840-3 35688.9201 3.763656-3 35748.9650 3.934647-32228 3102 1139
 35809.0151 4.132609-3 35854.0526 4.301965-3 35899.0900 4.490694-32228 3102 1140
 35944.1276 4.703348-3 35989.1600 4.941382-3 36034.1926 5.211050-32228 3102 1141
 36079.2300 5.514738-3 36124.2676 5.861228-3 36154.2926 6.118151-32228 3102 1142
 36184.3176 6.399027-3 36214.3426 6.706759-3 36244.3676 7.044635-32228 3102 1143
 36274.3901 7.416408-3 36304.4101 7.826496-3 36334.4326 8.279868-32228 3102 1144
 36349.4451 8.522352-3 36379.4700 9.051694-3 36409.4950 9.640510-32228 3102 1145
 36439.5200 1.029576-2 36462.0401 1.083718-2 36484.5600 1.142803-22228 3102 1146
 36507.0750 1.207248-2 36529.5900 1.277595-2 36552.1101 1.354502-22228 3102 1147
 36574.6300 1.438619-2 36597.1450 1.530736-2 36619.6600 1.631601-22228 3102 1148
 36642.1801 1.742105-2 36664.7000 1.863110-2 36687.2201 1.995495-22228 3102 1149
 36709.7400 2.139936-2 36730.0051 2.280902-2 36750.2701 2.432377-22228 3102 1150
 36775.7901 2.638643-2 36799.8101 2.847844-2 36835.8400 3.185292-22228 3102 1151
 36907.8900 3.893941-2 36931.9100 4.113683-2 36955.9300 4.308254-22228 3102 1152
 36973.9451 4.430765-2 36991.9601 4.528099-2 37003.9700 4.577037-22228 3102 1153
 37020.4851 4.621574-2 37038.8000 4.638697-2 37055.1601 4.624248-22228 3102 1154
 37071.6001 4.582602-2 37088.0400 4.515282-2 37106.0551 4.414995-22228 3102 1155
 37124.0701 4.291049-2 37148.0901 4.097144-2 37184.1200 3.767942-22228 3102 1156
 37244.1601 3.196975-2 37268.1801 2.980409-2 37292.2001 2.776500-22228 3102 1157
 37316.2201 2.587127-2 37342.4926 2.397700-2 37363.8864 2.257035-22228 3102 1158
 37385.2800 2.128247-2 37407.7951 2.005027-2 37430.3101 1.893722-22228 3102 1159
 37452.8263 1.793661-2 37475.3451 1.704007-2 37497.8638 1.624091-22228 3102 1160
 37520.3826 1.553240-2 37542.9014 1.490934-2 37565.4200 1.436615-22228 3102 1161
 37587.9389 1.389966-2 37610.4576 1.350700-2 37632.9763 1.318688-22228 3102 1162
 37655.4950 1.293913-2 37678.0138 1.276587-2 37700.5301 1.267044-22228 3102 1163
 37715.5400 1.265317-2 37738.0589 1.270344-2 37760.5776 1.285588-22228 3102 1164
 37775.5900 1.302294-2 37790.6026 1.325018-2 37805.6151 1.354638-22228 3102 1165
 37820.6276 1.392262-2 37835.6400 1.438945-2 37848.7751 1.488871-22228 3102 1166
 37861.9100 1.549246-2 37871.7614 1.602356-2 37881.6126 1.663322-22228 3102 1167
 37891.4638 1.733379-2 37901.3151 1.814024-2 37911.1664 1.907118-22228 3102 1168
 37921.0176 2.014983-2 37927.5851 2.096469-2 37934.1526 2.186775-22228 3102 1169
 37940.7200 2.287054-2 37949.1670 2.432842-2 37954.7983 2.541987-22228 3102 1170
 37960.4295 2.662314-2 37966.0608 2.795636-2 37971.6920 2.943528-22228 3102 1171
 37977.3233 3.107541-2 37982.9545 3.290129-2 37987.9351 3.469622-22228 3102 1172
 37992.2651 3.641173-2 37996.5951 3.828805-2 38000.9251 4.034422-22228 3102 1173
 38005.2551 4.260255-2 38009.5851 4.508854-2 38013.9151 4.783133-22228 3102 1174
 38018.2451 5.086426-2 38022.0338 5.378573-2 38026.9051 5.795685-22228 3102 1175
 38030.1526 6.102860-2 38033.4000 6.436141-2 38036.6476 6.798376-22228 3102 1176
 38039.8951 7.192632-2 38043.1426 7.622224-2 38046.3900 8.090662-22228 3102 1177
 38050.4495 8.736769-2 38054.5089 9.457770-2 38057.2150 9.984345-22228 3102 1178
 38059.9214 1.055079-1 38062.6276 1.115975-1 38065.3338 1.181390-12228 3102 1179
 38069.2307 1.284012-1 38072.8026 1.387265-1 38076.3745 1.499582-12228 3102 1180
 38079.9464 1.620911-1 38083.5183 1.750767-1 38088.8226 1.956799-12228 3102 1181
 38099.2176 2.376837-1 38103.1151 2.523225-1 38106.3626 2.632281-12228 3102 1182
 38109.6100 2.724645-1 38112.8576 2.795958-1 38115.0226 2.829950-12228 3102 1183
 38117.1876 2.852113-1 38119.9100 2.862376-1 38122.7501 2.851812-12228 3102 1184
 38125.7051 2.818259-1 38128.6600 2.763213-1 38131.9076 2.680805-12228 3102 1185
 38135.1551 2.579418-1 38138.8351 2.447337-1 38144.8951 2.206962-12228 3102 1186
 38151.7138 1.929788-1 38156.2614 1.753207-1 38160.8089 1.588524-12228 3102 1187
 38164.2195 1.474170-1 38167.6300 1.368082-1 38171.2845 1.263554-12228 3102 1188
 38174.9389 1.168185-1 38178.5933 1.081462-1 38182.2476 1.002767-12228 3102 1189
 38185.9020 9.314257-2 38188.6082 8.829413-2 38191.5845 8.335420-22228 3102 1190
 38194.5608 7.879341-2 38197.5370 7.458105-2 38200.5133 7.068850-22228 3102 1191
 38203.4895 6.708887-2 38207.9538 6.218334-2 38210.9300 5.920796-22228 3102 1192
 38214.7188 5.572364-2 38218.5076 5.254556-2 38222.2964 4.964208-22228 3102 1193
 38226.0851 4.698537-2 38229.8739 4.455013-2 38233.6626 4.231402-22228 3102 1194
 38237.4513 4.025696-2 38241.2400 3.836133-2 38246.1113 3.613603-22228 3102 1195
 38250.9826 3.412255-2 38255.8539 3.229575-2 38260.7251 3.063404-22228 3102 1196
 38265.5964 2.911865-2 38270.4676 2.773344-2 38277.7745 2.586930-22228 3102 1197
 38282.9163 2.469223-2 38288.3289 2.355850-2 38296.4476 2.203512-22228 3102 1198
 38304.5664 2.069474-2 38312.6851 1.950972-2 38320.8038 1.845738-22228 3102 1199
 38329.4638 1.746070-2 38338.3945 1.655073-2 38347.3250 1.574043-22228 3102 1200
 38356.2558 1.501507-2 38365.1863 1.436470-2 38371.1400 1.396800-22228 3102 1201
 38383.7301 1.321371-2 38396.3201 1.255827-2 38408.9101 1.198761-22228 3102 1202
 38421.5000 1.148724-2 38433.5951 1.106089-2 38445.6900 1.068082-22228 3102 1203
 38463.8326 1.018586-2 38481.9726 9.766199-3 38500.1114 9.408771-32228 3102 1204
 38518.2500 9.103060-3 38542.4400 8.762116-3 38566.6300 8.483529-32228 3102 1205
 38590.8150 8.256198-3 38615.0000 8.072233-3 38647.2501 7.881018-32228 3102 1206
 38679.5000 7.740092-3 38711.7501 7.642002-3 38744.0000 7.580198-32228 3102 1207
 38792.3800 7.544140-3 38840.7500 7.569431-3 38889.1251 7.646411-32228 3102 1208
 38937.5001 7.768651-3 38985.8751 7.937314-3 39034.2500 8.147875-32228 3102 1209
 39082.6251 8.404232-3 39131.0001 8.704277-3 39179.3751 9.054366-32228 3102 1210
 39227.7500 9.454143-3 39276.1251 9.912763-3 39324.5001 1.043150-22228 3102 1211
 39372.8751 1.102315-2 39421.2500 1.169089-2 39453.5001 1.218653-22228 3102 1212
 39485.7500 1.272615-2 39518.0001 1.331417-2 39550.2500 1.395560-22228 3102 1213
 39582.5001 1.465617-2 39626.8426 1.572508-2 39663.1200 1.670804-22228 3102 1214
 39699.4051 1.780056-2 39735.6900 1.901743-2 39771.9726 2.037653-22228 3102 1215
 39808.2500 2.189839-2 39844.5276 2.360759-2 39868.7151 2.486494-22228 3102 1216
 39892.9051 2.622794-2 39917.0951 2.770655-2 39941.2851 2.931359-22228 3102 1217
 39965.4726 3.106142-2 39989.6576 3.296484-2 40013.8426 3.503914-22228 3102 1218
 40038.0276 3.730184-2 40062.2151 3.977192-2 40086.4051 4.246946-22228 3102 1219
 40110.5926 4.541352-2 40134.7776 4.862758-2 40158.9651 5.213136-22228 3102 1220
 40183.1551 5.594505-2 40209.7626 6.051486-2 40238.7876 6.596275-22228 3102 1221
 40266.2001 7.155647-2 40292.0001 7.719508-2 40330.7000 8.622064-22228 3102 1222
 40408.1000 1.049246-1 40433.9000 1.106675-1 40459.7000 1.157396-12228 3102 1223
 40479.0501 1.189334-1 40498.4001 1.214787-1 40520.1701 1.234491-12228 3102 1224
 40537.9101 1.242909-1 40550.0000 1.244565-1 40568.3826 1.240542-12228 3102 1225
 40588.2164 1.227771-1 40608.0500 1.206784-1 40627.4001 1.179263-12228 3102 1226
 40646.7501 1.145859-1 40672.5501 1.094225-1 40711.2500 1.007369-12228 3102 1227
 40769.3000 8.725403-2 40795.1001 8.157119-2 40820.9000 7.626605-22228 3102 1228
 40846.7000 7.143879-2 40866.0501 6.819276-2 40884.5926 6.544341-22228 3102 1229
 40902.7314 6.314921-2 40920.8700 6.134062-2 40932.2101 6.053252-22228 3102 1230
 40943.5501 6.006466-2 40951.1100 5.999027-2 40959.0470 6.017591-22228 3102 1231
 40966.9839 6.068550-2 40974.9208 6.161940-2 40980.2120 6.255284-22228 3102 1232
 40985.5033 6.379918-2 40990.7945 6.542971-2 40995.2495 6.716794-22228 3102 1233
 40998.8683 6.887579-2 41002.4870 7.089626-2 41006.1058 7.328210-22228 3102 1234
 41009.7245 7.609657-2 41013.3433 7.941382-2 41016.9620 8.331565-22228 3102 1235
 41019.6761 8.667605-2 41022.3900 9.044539-2 41025.5364 9.536503-22228 3102 1236
 41028.6826 1.009029-1 41031.8289 1.070618-1 41034.9751 1.137972-12228 3102 1237
 41039.1700 1.234676-1 41045.6801 1.387633-1 41047.8500 1.434566-12228 3102 1238
 41050.7450 1.489795-1 41052.9163 1.523592-1 41055.0851 1.549187-12228 3102 1239
 41057.2526 1.565419-1 41059.5350 1.571506-1 41061.7400 1.566279-12228 3102 1240
 41063.9076 1.550648-1 41066.0751 1.525247-1 41068.2438 1.491096-12228 3102 1241
 41070.4151 1.449513-1 41073.3100 1.385261-1 41078.2251 1.263065-12228 3102 1242
 41084.4063 1.107095-1 41088.2051 1.018411-1 41090.7376 9.638869-22228 3102 1243
 41093.2700 9.133742-2 41095.8026 8.669053-2 41098.3351 8.243758-22228 3102 1244
 41100.8676 7.855825-2 41104.3042 7.384582-2 41107.0163 7.053358-22228 3102 1245
 41110.6326 6.661072-2 41114.2489 6.318037-2 41117.8651 6.017197-22228 3102 1246
 41121.4814 5.752344-2 41125.0976 5.518184-2 41128.7138 5.310203-22228 3102 1247
 41134.1376 5.039227-2 41139.5601 4.808486-2 41144.9826 4.609977-22228 3102 1248
 41150.4051 4.437546-2 41157.6351 4.240053-2 41164.2145 4.086045-22228 3102 1249
 41173.1076 3.908334-2 41182.0008 3.757711-2 41190.8939 3.627742-22228 3102 1250
 41202.7513 3.479173-2 41215.2638 3.346598-2 41228.4314 3.227150-22228 3102 1251
 41241.5989 3.122758-2 41261.3500 2.989134-2 41283.9251 2.862231-22228 3102 1252
 41306.5001 2.756243-2 41330.9563 2.660182-2 41359.1750 2.569843-22228 3102 1253
 41387.3938 2.495762-2 41411.8501 2.443905-2 41441.9501 2.393886-22228 3102 1254
 41472.0501 2.358037-2 41502.1501 2.335450-2 41532.2501 2.325594-22228 3102 1255
 41547.3000 2.324886-2 41577.4000 2.333760-2 41607.5000 2.355245-22228 3102 1256
 41637.6001 2.389713-2 41667.7000 2.437767-2 41697.8000 2.500240-22228 3102 1257
 41727.9000 2.578215-2 41758.0001 2.673038-2 41795.6251 2.816948-22228 3102 1258
 41818.2000 2.919090-2 41848.3000 3.075419-2 41870.8751 3.209137-22228 3102 1259
 41893.4501 3.358295-2 41916.0251 3.524288-2 41938.6001 3.708475-22228 3102 1260
 41961.1751 3.912405-2 41983.7501 4.137499-2 42006.3251 4.385268-22228 3102 1261
 42028.9000 4.656905-2 42055.9901 5.015690-2 42083.0800 5.410779-22228 3102 1262
 42107.1600 5.791979-2 42143.2801 6.410358-2 42227.5600 7.944909-22228 3102 1263
 42251.6401 8.349020-2 42275.7200 8.704257-2 42293.7801 8.926113-22228 3102 1264
 42311.8401 9.100552-2 42332.0076 9.230716-2 42348.2626 9.281405-22228 3102 1265
 42356.3900 9.287938-2 42372.0401 9.263834-2 42390.1001 9.178066-22228 3102 1266
 42408.1601 9.033325-2 42426.2201 8.835027-2 42438.2600 8.676608-22228 3102 1267
 42462.3400 8.307902-2 42486.4201 7.887369-2 42537.5900 6.911107-22228 3102 1268
 42576.7201 6.164092-2 42600.8001 5.726141-2 42624.8801 5.312064-22228 3102 1269
 42648.9601 4.925023-2 42676.0501 4.523796-2 42698.6251 4.216552-22228 3102 1270
 42721.2000 3.933332-2 42743.7751 3.673011-2 42766.3501 3.434090-22228 3102 1271
 42788.9251 3.215083-2 42811.5001 3.014360-2 42834.0751 2.830437-22228 3102 1272
 42856.6501 2.661794-2 42879.2251 2.507099-2 42901.8000 2.365035-22228 3102 1273
 42924.3751 2.234529-2 42946.9501 2.115637-2 42962.0000 2.040170-22228 3102 1274
 42992.1001 1.902001-2 43022.2000 1.777666-2 43052.3000 1.665503-22228 3102 1275
 43082.4000 1.564067-2 43112.5001 1.472105-2 43142.6000 1.388527-22228 3102 1276
 43172.7000 1.312387-2 43202.8000 1.242862-2 43232.9000 1.179232-22228 3102 1277
 43263.0000 1.120872-2 43293.1001 1.067232-2 43323.2000 1.017831-22228 3102 1278
 43368.3501 9.508820-3 43413.5001 8.910702-3 43458.6501 8.378218-32228 3102 1279
 43503.8000 7.899049-3 43548.9501 7.469383-3 43594.1001 7.080317-32228 3102 1280
 43639.2501 6.729284-3 43684.4000 6.409722-3 43744.6000 6.028566-32228 3102 1281
 43804.8000 5.691293-3 43865.0000 5.392193-3 43925.2000 5.125866-32228 3102 1282
 43985.4000 4.887805-3 44045.6000 4.674930-3 44105.8000 4.484317-32228 3102 1283
 44166.0000 4.313499-3 44226.2000 4.160390-3 44286.4000 4.023220-32228 3102 1284
 44346.6000 3.900485-3 44436.9000 3.741611-3 44527.2000 3.607009-32228 3102 1285
 44617.5001 3.497392-3 44707.8000 3.407495-3 44768.0000 3.358899-32228 3102 1286
 44879.9200 3.290932-3 44983.0001 3.253219-3 45086.0800 3.236294-32228 3102 1287
 45103.2600 3.235787-3 45189.1600 3.244109-3 45292.2400 3.273442-32228 3102 1288
 45360.9600 3.307249-3 45429.6800 3.352670-3 45498.4000 3.410477-32228 3102 1289
 45567.1200 3.481636-3 45635.8400 3.567343-3 45704.5600 3.669057-32228 3102 1290
 45773.2800 3.788555-3 45842.0000 3.927749-3 45910.7200 4.089468-32228 3102 1291
 45979.4400 4.277140-3 46048.1600 4.494438-3 46099.7000 4.679220-32228 3102 1292
 46168.4201 4.961456-3 46219.9600 5.201397-3 46271.5001 5.471610-32228 3102 1293
 46323.0401 5.773834-3 46374.5801 6.115818-3 46426.1200 6.500284-32228 3102 1294
 46460.4800 6.785174-3 46494.8400 7.095295-3 46529.2000 7.433443-32228 3102 1295
 46563.5600 7.802794-3 46597.9201 8.206976-3 46632.2800 8.650130-32228 3102 1296
 46666.6401 9.137006-3 46701.0000 9.673047-3 46735.3601 1.026451-22228 3102 1297
 46769.7200 1.091706-2 46795.4901 1.145209-2 46834.1451 1.233998-22228 3102 1298
 46859.9151 1.299415-2 46885.6851 1.370398-2 46911.4551 1.447521-22228 3102 1299
 46937.2251 1.531411-2 46962.9951 1.622762-2 46988.7651 1.722333-22228 3102 1300
 47014.5351 1.830956-2 47040.3051 1.949521-2 47066.0751 2.078986-22228 3102 1301
 47091.8451 2.220343-2 47117.6151 2.374621-2 47143.3851 2.542818-22228 3102 1302
 47169.1551 2.725873-2 47197.5026 2.945311-2 47228.4276 3.206865-22228 3102 1303
 47257.6326 3.475405-2 47285.1176 3.746104-2 47326.3501 4.179473-22228 3102 1304
 47408.8200 5.077598-2 47436.3051 5.353281-2 47463.7900 5.596691-22228 3102 1305
 47484.4076 5.749894-2 47505.0251 5.871910-2 47528.2176 5.966130-22228 3102 1306
 47547.1126 6.006113-2 47559.3100 6.013707-2 47575.6326 6.000682-22228 3102 1307
 47597.2776 5.944332-2 47614.9726 5.866645-2 47635.5900 5.743600-22228 3102 1308
 47656.2076 5.590215-2 47676.8251 5.411906-2 47704.3151 5.145454-22228 3102 1309
 47764.4401 4.506913-2 47807.3901 4.051378-2 47834.8800 3.774139-22228 3102 1310
 47862.3700 3.512783-2 47889.8600 3.269432-2 47914.3401 3.068796-22228 3102 1311
 47938.8201 2.882970-2 47968.0251 2.680476-2 47993.7951 2.518343-22228 3102 1312
 48019.5651 2.370816-2 48045.3351 2.236923-2 48071.1051 2.115679-22228 3102 1313
 48096.8751 2.006116-2 48122.6451 1.907315-2 48148.4151 1.818417-22228 3102 1314
 48174.1851 1.738641-2 48199.9551 1.667283-2 48230.0201 1.594851-22228 3102 1315
 48247.2000 1.556721-2 48281.5600 1.490468-2 48315.9201 1.435336-22228 3102 1316
 48350.2800 1.390534-2 48384.6401 1.355469-2 48419.0000 1.329738-22228 3102 1317
 48453.3601 1.313121-2 48496.3100 1.304822-2 48526.3751 1.308228-22228 3102 1318
 48556.4400 1.318478-2 48582.2101 1.333498-2 48607.9800 1.354863-22228 3102 1319
 48633.7501 1.382883-2 48659.5200 1.418127-2 48685.2901 1.461391-22228 3102 1320
 48711.0600 1.513563-2 48736.8300 1.575839-2 48762.6000 1.649574-22228 3102 1321
 48783.2026 1.717958-2 48803.8051 1.795665-2 48824.6576 1.885419-22228 3102 1322
 48846.0100 1.990510-2 48867.3626 2.110820-2 48888.7151 2.248853-22228 3102 1323
 48902.9500 2.352104-2 48917.1851 2.465551-2 48931.4200 2.590388-22228 3102 1324
 48945.6551 2.727522-2 48959.8901 2.879365-2 48974.1251 3.047119-22228 3102 1325
 48988.3600 3.232406-2 49002.5951 3.438616-2 49016.8300 3.667915-22228 3102 1326
 49031.0651 3.923477-2 49045.3000 4.208783-2 49055.9764 4.444769-22228 3102 1327
 49066.6526 4.701858-2 49077.3289 4.982126-2 49088.0051 5.287986-22228 3102 1328
 49098.6813 5.621945-2 49109.3576 5.986887-2 49120.0339 6.385895-22228 3102 1329
 49130.7101 6.821986-2 49141.3864 7.298668-2 49152.0626 7.819144-22228 3102 1330
 49162.7388 8.386450-2 49173.4151 9.003645-2 49184.0914 9.672775-22228 3102 1331
 49194.7676 1.039458-1 49201.8851 1.090507-1 49216.1200 1.199274-12228 3102 1332
 49234.2701 1.348690-1 49264.5200 1.606856-1 49278.7550 1.719339-12228 3102 1333
 49289.4313 1.793390-1 49300.1076 1.854588-1 49307.2251 1.886567-12228 3102 1334
 49314.3426 1.910480-1 49321.4600 1.925669-1 49329.5750 1.931781-12228 3102 1335
 49339.0376 1.923523-1 49348.7539 1.898302-1 49358.4700 1.857426-12228 3102 1336
 49369.1464 1.796866-1 49379.8226 1.723161-1 49391.9226 1.628290-12228 3102 1337
 49416.8351 1.415412-1 49433.3838 1.274450-1 49446.5514 1.167787-12228 3102 1338
 49459.7189 1.068034-1 49472.8863 9.761202-2 49483.0288 9.108120-22228 3102 1339
 49493.7051 8.471652-2 49504.3814 7.885909-2 49515.0576 7.347982-22228 3102 1340
 49525.7339 6.854740-2 49536.4100 6.403108-2 49547.0864 5.989546-22228 3102 1341
 49557.7626 5.610872-2 49568.4389 5.264029-2 49579.1151 4.946142-22228 3102 1342
 49589.7913 4.654576-2 49601.3563 4.365469-2 49613.3658 4.091895-22228 3102 1343
 49625.3751 3.843036-2 49637.3845 3.616423-2 49649.3938 3.408339-22228 3102 1344
 49664.5176 3.170742-2 49678.7526 2.969366-2 49692.9876 2.786999-22228 3102 1345
 49707.2226 2.621459-2 49721.4588 2.470833-2 49735.6964 2.333504-22228 3102 1346
 49749.9339 2.207972-2 49764.1713 2.093008-2 49778.4076 1.987520-22228 3102 1347
 49792.6426 1.890516-2 49813.9951 1.759166-2 49835.3463 1.642601-22228 3102 1348
 49856.6951 1.538758-2 49878.0438 1.445917-2 49899.3976 1.362670-22228 3102 1349
 49920.7539 1.287804-2 49942.1100 1.220291-2 49963.4589 1.159279-22228 3102 1350
 49984.8076 1.104028-2 50007.9376 1.049921-2 50034.6300 9.940861-32228 3102 1351
 50061.3226 9.447740-3 50084.4551 9.061233-3 50112.9251 8.635102-32228 3102 1352
 50141.3951 8.258209-3 50169.8651 7.925159-3 50198.3351 7.631471-32228 3102 1353
 50226.8051 7.373431-3 50255.2751 7.147979-3 50283.7451 6.952618-32228 3102 1354
 50312.2151 6.785344-3 50340.6851 6.644592-3 50369.1551 6.529201-32228 3102 1355
 50397.6251 6.438386-3 50426.0951 6.371724-3 50454.5651 6.329146-32228 3102 1356
 50492.0300 6.309254-3 50519.8150 6.324545-3 50547.6000 6.363534-32228 3102 1357
 50577.3150 6.435303-3 50607.0300 6.540971-3 50636.7450 6.683764-32228 3102 1358
 50666.4600 6.867665-3 50696.1750 7.098808-3 50718.4613 7.307110-32228 3102 1359
 50740.7476 7.549506-3 50763.0339 7.830494-3 50785.3200 8.155497-32228 3102 1360
 50807.6064 8.531058-3 50829.8926 8.965018-3 50852.1788 9.463486-32228 3102 1361
 50867.0364 9.840710-3 50881.8939 1.025792-2 50896.7513 1.071956-22228 3102 1362
 50911.6088 1.123133-2 50926.4664 1.179948-2 50941.3239 1.243176-22228 3102 1363
 50956.1813 1.313712-2 50971.0388 1.392595-2 50985.8964 1.481135-22228 3102 1364
 51000.7539 1.580781-2 51011.8970 1.663863-2 51023.0400 1.755067-22228 3102 1365
 51034.1833 1.855420-2 51045.3264 1.966084-2 51056.4695 2.088413-22228 3102 1366
 51067.6126 2.223954-2 51078.7557 2.374572-2 51089.2801 2.532307-22228 3102 1367
 51099.4951 2.701831-2 51109.7101 2.890321-2 51119.9251 3.100094-22228 3102 1368
 51130.1401 3.334023-2 51140.0451 3.587201-2 51149.3301 3.851283-22228 3102 1369
 51158.6151 4.144733-2 51167.9001 4.471390-2 51177.1851 4.835447-22228 3102 1370
 51186.4700 5.241745-2 51194.8270 5.647814-2 51203.1839 6.096313-22228 3102 1371
 51211.5408 6.591488-2 51219.8976 7.137568-2 51228.2545 7.738244-22228 3102 1372
 51236.2413 8.365898-2 51244.0433 9.031115-2 51251.8451 9.747716-22228 3102 1373
 51262.2476 1.077819-1 51276.1163 1.225624-1 51293.4476 1.414943-12228 3102 1374
 51302.8563 1.510925-1 51310.2850 1.578371-1 51317.7138 1.635039-12228 3102 1375
 51324.6976 1.675813-1 51331.4589 1.701731-1 51338.2200 1.712973-12228 3102 1376
 51339.8000 1.713404-1 51344.3601 1.709945-1 51350.7001 1.693727-12228 3102 1377
 51356.2226 1.669323-1 51363.2801 1.625570-1 51370.3376 1.569824-12228 3102 1378
 51377.3951 1.504678-1 51386.8051 1.407859-1 51411.3201 1.139955-12228 3102 1379
 51421.2251 1.037121-1 51431.1300 9.413289-2 51439.1158 8.699623-22228 3102 1380
 51447.1014 8.040198-2 51455.0870 7.434422-2 51463.0726 6.880224-22228 3102 1381
 51471.0582 6.374612-2 51479.9101 5.866710-2 51486.1001 5.541873-22228 3102 1382
 51492.2901 5.240036-2 51498.4800 4.959514-2 51507.7651 4.575340-22228 3102 1383
 51517.0501 4.230762-2 51526.6451 3.911398-2 51533.4551 3.705003-22228 3102 1384
 51540.2651 3.513902-2 51550.4800 3.253301-2 51560.6951 3.019652-22228 3102 1385
 51570.9101 2.809399-2 51581.4345 2.614628-2 51592.5776 2.429600-22228 3102 1386
 51603.7208 2.263619-2 51614.8639 2.114294-2 51626.0070 1.979560-22228 3102 1387
 51637.1500 1.857600-2 51648.2933 1.746923-2 51659.4364 1.646205-22228 3102 1388
 51670.5795 1.554348-2 51681.7226 1.470371-2 51692.8657 1.393414-22228 3102 1389
 51704.0088 1.322735-2 51718.8664 1.237110-2 51733.7239 1.160153-22228 3102 1390
 51748.5813 1.090749-2 51763.4388 1.027951-2 51778.2964 9.709446-32228 3102 1391
 51793.1539 9.190633-3 51808.0113 8.717143-3 51822.8688 8.283701-32228 3102 1392
 51837.7264 7.888083-3 51860.0126 7.351223-3 51882.2988 6.874212-32228 3102 1393
 51904.5851 6.449355-3 51926.8713 6.069277-3 51949.1576 5.727890-32228 3102 1394
 51971.4439 5.420117-3 51993.7300 5.141688-3 52016.0164 4.888968-32228 3102 1395
 52038.3026 4.658856-3 52068.0176 4.382641-3 52097.7326 4.136683-32228 3102 1396
 52127.4476 3.916717-3 52157.1626 3.719153-3 52191.8301 3.513058-32228 3102 1397
 52211.6401 3.406133-3 52251.2600 3.211444-3 52290.8800 3.039072-32228 3102 1398
 52330.5000 2.886154-3 52370.1200 2.749906-3 52409.7400 2.628038-32228 3102 1399
 52449.3601 2.518658-3 52488.9800 2.420189-3 52528.6001 2.331309-32228 3102 1400
 52568.2200 2.250905-3 52627.6500 2.144158-3 52687.0800 2.051933-32228 3102 1401
 52753.9351 1.963107-3 52825.7501 1.881514-3 52900.0426 1.811734-32228 3102 1402
 52974.3300 1.753480-3 53036.3250 1.713903-3 53122.5876 1.669440-32228 3102 1403
 53195.3900 1.641413-3 53259.9300 1.623672-3 53324.4800 1.612176-32228 3102 1404
 53405.1600 1.606415-3 53489.8801 1.611778-3 53550.3950 1.622112-32228 3102 1405
 53614.9426 1.639489-3 53711.7600 1.679939-3 53789.2200 1.726253-32228 3102 1406
 53840.8601 1.764812-3 53892.5000 1.810275-3 53944.1350 1.863436-32228 3102 1407
 53995.7700 1.925268-3 54047.4100 1.996924-3 54099.0500 2.079816-32228 3102 1408
 54150.6900 2.175665-3 54202.3300 2.286293-3 54241.0551 2.380684-32228 3102 1409
 54279.7800 2.486340-3 54318.5100 2.604989-3 54357.2400 2.738033-32228 3102 1410
 54395.9701 2.888172-3 54434.7000 3.057485-3 54473.4250 3.249833-32228 3102 1411
 54502.4688 3.411127-3 54531.5151 3.589241-3 54560.5626 3.786530-32228 3102 1412
 54589.6100 4.005752-3 54618.6576 4.250152-3 54647.7051 4.523519-32228 3102 1413
 54676.7513 4.830305-3 54696.1139 5.055498-3 54715.4764 5.300142-32228 3102 1414
 54744.5200 5.706568-3 54768.7264 6.087669-3 54792.9326 6.515052-32228 3102 1415
 54817.1388 6.994810-3 54833.2764 7.347940-3 54849.4139 7.731141-32228 3102 1416
 54865.5513 8.147819-3 54881.6888 8.601863-3 54897.8264 9.097731-32228 3102 1417
 54913.9639 9.640551-3 54930.1013 1.023623-2 54946.2388 1.089160-22228 3102 1418
 54962.3764 1.161452-2 54978.5139 1.241264-2 54994.6513 1.330124-22228 3102 1419
 55009.9813 1.423830-2 55024.5039 1.522023-2 55039.0264 1.630491-22228 3102 1420
 55053.5488 1.750773-2 55064.4407 1.850101-2 55075.3326 1.957986-22228 3102 1421
 55086.2245 2.075335-2 55097.1164 2.203197-2 55108.0083 2.342755-22228 3102 1422
 55118.9000 2.495342-2 55129.7920 2.662490-2 55140.6839 2.845868-22228 3102 1423
 55151.5758 3.047327-2 55162.4676 3.269002-2 55173.3595 3.513256-22228 3102 1424
 55184.2526 3.782715-2 55195.1464 4.080205-2 55206.0401 4.408751-22228 3102 1425
 55216.9339 4.771560-2 55227.8276 5.171870-2 55238.6401 5.609366-22228 3102 1426
 55249.2901 6.081996-2 55259.9401 6.597779-2 55270.5901 7.157526-22228 3102 1427
 55281.2401 7.760203-2 55291.8900 8.401752-2 55307.3814 9.387937-22228 3102 1428
 55328.0363 1.073078-1 55339.6551 1.144516-1 55349.3376 1.198308-12228 3102 1429
 55359.0200 1.244259-1 55365.4751 1.269345-1 55371.9301 1.289237-12228 3102 1430
 55378.3851 1.303405-1 55384.8400 1.311455-1 55389.7400 1.313326-12228 3102 1431
 55398.1951 1.307862-1 55407.0076 1.290778-1 55415.8200 1.262955-12228 3102 1432
 55425.5026 1.221639-1 55435.1851 1.171280-1 55446.1576 1.106389-12228 3102 1433
 55468.7451 9.605592-2 55487.9464 8.376464-2 55501.5014 7.566357-22228 3102 1434
 55511.6676 7.001225-2 55521.8339 6.475794-2 55532.0000 5.990480-22228 3102 1435
 55542.8939 5.513901-2 55553.7876 5.080298-2 55564.6814 4.686836-22228 3102 1436
 55575.5751 4.330344-2 55586.4688 4.007557-2 55597.3613 3.715325-22228 3102 1437
 55608.2533 3.450607-2 55619.1450 3.210593-2 55630.0370 2.992720-22228 3102 1438
 55640.9288 2.794676-2 55652.2245 2.608118-2 55664.3276 2.427633-22228 3102 1439
 55676.4308 2.264096-2 55688.5339 2.115514-2 55700.6370 1.980534-22228 3102 1440
 55712.7400 1.857671-2 55724.8433 1.745597-2 55736.9464 1.643153-22228 3102 1441
 55749.0495 1.549318-2 55761.1526 1.463197-2 55773.2557 1.383995-22228 3102 1442
 55785.3576 1.311011-2 55801.4926 1.222359-2 55817.6276 1.142458-22228 3102 1443
 55833.7626 1.070209-2 55849.8988 1.004685-2 55866.0364 9.450975-32228 3102 1444
 55882.1739 8.907709-3 55898.3113 8.411168-3 55914.4488 7.956243-32228 3102 1445
 55930.5864 7.538496-3 55946.7239 7.154053-3 55962.8613 6.799523-32228 3102 1446
 55987.0651 6.317438-3 56011.2676 5.887439-3 56035.4700 5.503355-32228 3102 1447
 56064.5176 5.093099-3 56083.8826 4.845690-3 56112.9300 4.509431-32228 3102 1448
 56141.9776 4.209963-3 56171.0251 3.942112-3 56200.0726 3.701531-32228 3102 1449
 56229.1200 3.484603-3 56258.1676 3.288324-3 56287.2126 3.110163-32228 3102 1450
 56316.2564 2.948064-3 56345.3000 2.800183-3 56384.0301 2.622464-32228 3102 1451
 56422.7600 2.463630-3 56461.4901 2.321561-3 56500.2200 2.193601-32228 3102 1452
 56538.9451 2.078293-3 56577.6700 1.973738-3 56616.4001 1.878923-32228 3102 1453
 56680.9500 1.739406-3 56732.5900 1.641567-3 56784.2300 1.554329-32228 3102 1454
 56835.8651 1.476241-3 56887.5000 1.406116-3 56939.1401 1.342928-32228 3102 1455
 56990.7800 1.285835-3 57068.2400 1.210066-3 57145.6900 1.144506-32228 3102 1456
 57203.7850 1.100985-3 57261.8800 1.061645-3 57326.4200 1.022402-32228 3102 1457
 57390.9700 9.872981-4 57455.5200 9.558816-4 57552.3451 9.150655-42228 3102 1458
 57649.1600 8.802221-4 57745.9851 8.513536-4 57842.8000 8.271175-42228 3102 1459
 57939.6251 8.076822-4 58036.4500 7.921150-4 58133.2651 7.807264-42228 3102 1460
 58230.0900 7.728585-4 58326.9151 7.689835-4 58375.3200 7.682304-42228 3102 1461
 58488.2800 7.707026-4 58585.1050 7.774096-4 58681.9200 7.883393-42228 3102 1462
 58778.7450 8.046993-4 58843.2951 8.186943-4 58907.8400 8.355944-42228 3102 1463
 58972.3850 8.557735-4 59036.9351 8.796976-4 59069.2100 8.928914-42228 3102 1464
 59133.7500 9.234033-4 59183.7000 9.508462-4 59233.6500 9.819804-42228 3102 1465
 59278.7000 1.013768-3 59323.7500 1.049582-3 59368.8000 1.090038-32228 3102 1466
 59413.8500 1.135891-3 59458.9000 1.188061-3 59503.9500 1.247691-32228 3102 1467
 59554.6276 1.325171-3 59588.4151 1.384434-3 59622.2051 1.450890-32228 3102 1468
 59655.9951 1.525618-3 59689.7851 1.610112-3 59723.5726 1.706106-32228 3102 1469
 59748.9114 1.786949-3 59774.2500 1.876669-3 59797.9014 1.969595-32228 3102 1470
 59821.5526 2.072566-3 59846.3301 2.192923-3 59864.3501 2.289987-32228 3102 1471
 59882.3701 2.396521-3 59900.3901 2.512955-3 59918.4101 2.640893-32228 3102 1472
 59936.4301 2.782002-3 59954.4501 2.938188-3 59972.4701 3.111718-32228 3102 1473
 59989.3638 3.292557-3 60005.1314 3.479491-3 60020.8989 3.685474-32228 3102 1474
 60036.6663 3.915281-3 60052.4338 4.172552-3 60068.2014 4.461220-32228 3102 1475
 60080.0270 4.701510-3 60091.8526 4.965151-3 60103.6782 5.255298-32228 3102 1476
 60115.5038 5.575649-3 60127.3295 5.930575-3 60139.1551 6.325253-32228 3102 1477
 60150.9808 6.765883-3 60162.8063 7.259887-3 60174.3501 7.802195-32228 3102 1478
 60185.3301 8.382410-3 60192.6501 8.809340-3 60199.9701 9.272594-32228 3102 1479
 60207.2901 9.776348-3 60214.6101 1.032507-2 60221.9301 1.092365-22228 3102 1480
 60229.2500 1.157875-2 60236.8533 1.232846-2 60244.4564 1.315899-22228 3102 1481
 60252.0595 1.408146-2 60259.6626 1.510901-2 60267.2657 1.625768-22228 3102 1482
 60272.3338 1.710007-2 60277.4014 1.801153-2 60282.4689 1.899987-22228 3102 1483
 60287.5364 2.007378-2 60292.6039 2.124319-2 60297.6714 2.251934-22228 3102 1484
 60302.7389 2.391502-2 60307.8063 2.544493-2 60312.3113 2.693155-22228 3102 1485
 60318.2251 2.908823-2 60322.1676 3.067198-2 60326.1101 3.238693-22228 3102 1486
 60330.0526 3.424723-2 60333.9951 3.626849-2 60337.9376 3.846832-22228 3102 1487
 60341.8800 4.086633-2 60346.5264 4.397741-2 60351.1726 4.743690-22228 3102 1488
 60355.8189 5.129488-2 60358.9164 5.411680-2 60362.0139 5.716103-22228 3102 1489
 60365.1113 6.044854-2 60368.0676 6.383387-2 60372.2901 6.913174-22228 3102 1490
 60376.5126 7.503503-2 60379.3276 7.934297-2 60382.1426 8.397577-22228 3102 1491
 60384.9576 8.895730-2 60387.7726 9.431179-2 60391.6013 1.022363-12228 3102 1492
 60395.2333 1.104836-1 60398.8651 1.194826-1 60402.4970 1.292607-12228 3102 1493
 60406.1288 1.398215-1 60408.5500 1.472849-1 60413.0551 1.619967-12228 3102 1494
 60419.8126 1.855854-1 60426.5700 2.096428-1 60431.0750 2.248041-12228 3102 1495
 60434.4538 2.350960-1 60437.8326 2.440186-1 60441.2114 2.511853-12228 3102 1496
 60444.5900 2.562582-1 60447.0701 2.584984-1 60450.0000 2.594290-12228 3102 1497
 60452.5676 2.586893-1 60455.3389 2.562870-1 60458.1100 2.523028-12228 3102 1498
 60460.8139 2.470196-1 60463.5176 2.405224-1 60466.5588 2.319991-12228 3102 1499
 60470.2750 2.202464-1 60475.2300 2.031454-1 60484.2401 1.711168-12228 3102 1500
 60488.7451 1.558592-1 60493.2500 1.415829-1 60496.9664 1.306653-12228 3102 1501
 60500.6826 1.205661-1 60504.3989 1.112836-1 60508.1151 1.027917-12228 3102 1502
 60511.8313 9.504814-2 60515.8863 8.739278-2 60518.7026 8.252707-22228 3102 1503
 60521.5189 7.800318-2 60524.3351 7.379747-2 60528.5595 6.803489-22228 3102 1504
 60532.7838 6.286369-2 60535.6000 5.971168-2 60538.9788 5.621228-22228 3102 1505
 60542.3576 5.299386-2 60545.7364 5.002977-2 60549.1151 4.729591-22228 3102 1506
 60552.4939 4.477033-2 60555.8726 4.243390-2 60560.9407 3.924696-22228 3102 1507
 60564.6007 3.715801-2 60568.5420 3.508651-2 60572.4833 3.318180-22228 3102 1508
 60576.4245 3.142755-2 60580.3658 2.980915-2 60586.2776 2.760805-22228 3102 1509
 60592.1895 2.564509-2 60596.6945 2.428905-2 60601.7633 2.289113-22228 3102 1510
 60606.8320 2.161422-2 60611.9008 2.044534-2 60616.9695 1.937309-22228 3102 1511
 60622.0383 1.838743-2 60627.1070 1.747956-2 60634.7100 1.624682-22228 3102 1512
 60640.9038 1.534331-2 60647.0976 1.451918-2 60653.2914 1.376576-22228 3102 1513
 60659.4851 1.307565-2 60665.6789 1.244245-2 60674.9695 1.158715-22228 3102 1514
 60684.2600 1.082900-2 60692.1438 1.025046-2 60700.0276 9.724594-32228 3102 1515
 60707.9114 9.245813-3 60715.7951 8.808967-3 60723.6789 8.409517-32228 3102 1516
 60735.5045 7.872013-3 60747.3300 7.398716-3 60759.1558 6.980414-32228 3102 1517
 60770.9814 6.609531-3 60782.8070 6.279755-3 60794.6326 5.985817-32228 3102 1518
 60806.4582 5.723284-3 60818.4151 5.485949-3 60834.4451 5.206480-32228 3102 1519
 60850.4751 4.965435-3 60866.5051 4.757603-3 60882.8351 4.575532-32228 3102 1520
 60899.4651 4.416494-3 60916.0951 4.281706-3 60932.7251 4.168892-32228 3102 1521
 60949.0426 4.075021-3 60973.0500 3.966322-3 60997.0576 3.888841-32228 3102 1522
 61018.3976 3.843565-3 61045.0726 3.815069-3 61058.4100 3.811666-32228 3102 1523
 61086.4189 3.829964-3 61114.4276 3.877982-3 61141.1026 3.952209-32228 3102 1524
 61165.1101 4.043191-3 61189.1176 4.158103-3 61213.1251 4.298447-32228 3102 1525
 61237.1326 4.466301-3 61261.1400 4.664379-3 61285.1476 4.896122-32228 3102 1526
 61309.1551 5.165811-3 61333.1626 5.478674-3 61349.1676 5.712612-32228 3102 1527
 61365.1726 5.971842-3 61381.1776 6.259044-3 61397.1826 6.576604-32228 3102 1528
 61413.1876 6.928184-3 61429.1926 7.318077-3 61445.1976 7.751307-32228 3102 1529
 61461.2026 8.233779-3 61477.2076 8.772455-3 61493.2126 9.375584-32228 3102 1530
 61505.2164 9.876062-3 61517.2200 1.042309-2 61529.2239 1.102223-22228 3102 1531
 61541.2276 1.167981-2 61553.2314 1.240315-2 61565.2351 1.320072-22228 3102 1532
 61577.2388 1.408233-2 61588.5763 1.500241-2 61599.5808 1.598737-22228 3102 1533
 61610.5851 1.707468-2 61621.5895 1.827749-2 61632.5938 1.960887-22228 3102 1534
 61643.2645 2.104116-2 61653.2676 2.253111-2 61663.2708 2.418009-22228 3102 1535
 61673.2739 2.600753-2 61683.2770 2.803675-2 61693.2800 3.029476-22228 3102 1536
 61703.2833 3.281127-2 61709.9520 3.464812-2 61716.6208 3.662431-22228 3102 1537
 61723.2895 3.875114-2 61729.9583 4.104055-2 61736.6270 4.350451-22228 3102 1538
 61743.2957 4.615484-2 61752.6313 5.020007-2 61761.6333 5.449481-22228 3102 1539
 61770.6350 5.919447-2 61779.6370 6.430793-2 61788.6388 6.982883-22228 3102 1540
 61799.1751 7.676018-2 61812.7801 8.626717-2 61830.9200 9.911183-22228 3102 1541
 61841.5900 1.060884-1 61849.5926 1.106752-1 61857.5951 1.144652-12228 3102 1542
 61862.9301 1.164474-1 61868.2651 1.179334-1 61873.6000 1.188828-12228 3102 1543
 61879.7900 1.192775-1 61886.7751 1.187947-1 61894.0576 1.172699-12228 3102 1544
 61901.3400 1.147802-1 61908.5439 1.114862-1 61915.7476 1.075111-12228 3102 1545
 61924.0176 1.023137-1 61937.8876 9.270508-2 61959.2276 7.760795-22228 3102 1546
 61970.1651 7.035315-2 61978.3683 6.526287-2 61986.5713 6.050864-22228 3102 1547
 61995.0407 5.596220-2 62004.0426 5.152698-2 62013.0445 4.748595-22228 3102 1548
 62022.0464 4.381665-2 62031.0483 4.049038-2 62040.0500 3.747817-22228 3102 1549
 62046.7188 3.543195-2 62053.3876 3.353045-2 62063.3908 3.092655-22228 3102 1550
 62073.3939 2.859118-2 62083.3970 2.649294-2 62093.4000 2.460487-22228 3102 1551
 62101.4026 2.323134-2 62109.4051 2.196663-2 62117.4076 2.079735-22228 3102 1552
 62125.4100 1.971484-2 62137.4139 1.823939-2 62149.4176 1.692183-22228 3102 1553
 62161.4213 1.574176-2 62173.4251 1.468174-2 62185.4289 1.372686-22228 3102 1554
 62197.4326 1.286434-2 62209.4364 1.208317-2 62221.4400 1.137391-22228 3102 1555
 62233.4439 1.072835-2 62245.4476 1.013945-2 62257.4514 9.601025-32228 3102 1556
 62269.4551 9.107736-3 62285.4600 8.512214-3 62301.4651 7.979139-32228 3102 1557
 62317.4701 7.500503-3 62333.4751 7.069520-3 62349.4800 6.680434-32228 3102 1558
 62365.4851 6.328327-3 62381.4901 6.008998-3 62397.4951 5.718866-32228 3102 1559
 62413.5000 5.455861-3 62437.5076 5.103691-3 62461.5151 4.795260-32228 3102 1560
 62485.5226 4.525615-3 62509.5301 4.289644-3 62533.5376 4.083176-32228 3102 1561
 62557.5451 3.902809-3 62581.5526 3.745764-3 62605.5600 3.609769-32228 3102 1562
 62629.5676 3.492970-3 62653.5751 3.393879-3 62677.5826 3.311333-32228 3102 1563
 62701.5900 3.244468-3 62725.5976 3.192708-3 62749.6051 3.155758-32228 3102 1564
 62773.6126 3.133596-3 62797.6200 3.126485-3 62821.6276 3.134984-32228 3102 1565
 62845.6351 3.159988-3 62869.3926 3.202242-3 62892.6500 3.262118-32228 3102 1566
 62915.9076 3.342046-3 62932.0676 3.411076-3 62948.8826 3.496891-32228 3102 1567
 62965.6976 3.597353-3 62982.5126 3.714800-3 62999.4426 3.852462-32228 3102 1568
 63016.4876 4.012340-3 63033.5326 4.199824-3 63050.5776 4.418861-32228 3102 1569
 63063.3613 4.607048-3 63076.1451 4.819010-3 63088.9289 5.058342-32228 3102 1570
 63101.7126 5.329382-3 63114.4964 5.637412-3 63127.2800 5.988899-32228 3102 1571
 63139.1508 6.361112-3 63151.0214 6.784907-3 63158.9351 7.100469-32228 3102 1572
 63166.8489 7.447130-3 63174.7626 7.829226-3 63182.6763 8.251171-32228 3102 1573
 63190.5900 8.718303-3 63199.7214 9.321995-3 63205.8089 9.768523-32228 3102 1574
 63211.8964 1.025513-2 63217.9839 1.078662-2 63224.0714 1.136858-22228 3102 1575
 63230.1589 1.200740-2 63236.2463 1.271054-2 63241.7251 1.340551-22228 3102 1576
 63246.5951 1.407876-2 63251.4651 1.481036-2 63256.3351 1.560698-22228 3102 1577
 63261.2051 1.647625-2 63266.0751 1.742688-2 63270.9451 1.846881-22228 3102 1578
 63275.8151 1.961336-2 63280.0763 2.070910-2 63285.5551 2.226361-22228 3102 1579
 63291.0339 2.400461-2 63294.6864 2.528300-2 63298.3389 2.666705-22228 3102 1580
 63301.9914 2.816778-2 63305.6438 2.979723-2 63308.9920 3.141519-22228 3102 1581
 63313.5576 3.383358-2 63318.1233 3.652476-2 63322.6889 3.952239-22228 3102 1582
 63327.2545 4.286332-2 63330.2982 4.530053-2 63334.4988 4.896510-22228 3102 1583
 63338.5170 5.282253-2 63342.5350 5.704855-2 63346.5533 6.166260-22228 3102 1584
 63350.5713 6.667449-2 63353.2500 7.023582-2 63358.1201 7.713930-22228 3102 1585
 63362.9901 8.452419-2 63375.4076 1.042833-1 63380.7626 1.122586-12228 3102 1586
 63384.6576 1.173842-1 63388.3101 1.214355-1 63391.9626 1.245681-12228 3102 1587
 63394.7401 1.262400-1 63397.8601 1.273178-1 63400.1000 1.275470-12228 3102 1588
 63402.7776 1.272164-1 63405.7739 1.260798-1 63408.7700 1.241744-12228 3102 1589
 63412.0551 1.212819-1 63415.3401 1.176624-1 63418.9913 1.129503-12228 3102 1590
 63423.3751 1.066030-1 63436.5251 8.602106-2 63441.3951 7.871535-22228 3102 1591
 63446.2651 7.188362-2 63450.2220 6.674106-2 63454.7876 6.128753-22228 3102 1592
 63459.3533 5.634664-2 63463.9189 5.189791-2 63468.4845 4.790915-22228 3102 1593
 63473.0500 4.434289-2 63476.7026 4.176752-2 63480.3551 3.941775-22228 3102 1594
 63484.0076 3.727459-2 63487.6600 3.532025-2 63491.3126 3.353774-22228 3102 1595
 63494.9651 3.191133-2 63498.6176 3.042640-2 63503.7920 2.853994-22228 3102 1596
 63508.3576 2.706434-2 63512.9233 2.574642-2 63517.4889 2.457002-22228 3102 1597
 63522.0546 2.352081-2 63526.6200 2.258626-2 63532.7076 2.149977-22228 3102 1598
 63538.7951 2.057573-2 63544.8826 1.979597-2 63550.9700 1.914559-22228 3102 1599
 63557.9320 1.854490-2 63564.8939 1.808328-2 63571.8558 1.774976-22228 3102 1600
 63578.8176 1.753637-2 63585.7795 1.743820-2 63588.1000 1.743064-22228 3102 1601
 63595.7483 1.749424-2 63603.3964 1.769426-2 63611.0445 1.803478-22228 3102 1602
 63618.6926 1.852413-2 63626.3407 1.917484-2 63631.4407 1.970675-22228 3102 1603
 63636.5420 2.032466-2 63641.6433 2.103625-2 63646.7445 2.185088-22228 3102 1604
 63651.8458 2.277985-2 63656.9470 2.383665-2 63662.0483 2.503717-22228 3102 1605
 63667.1495 2.640058-2 63671.3970 2.767688-2 63676.4876 2.939946-22228 3102 1606
 63681.5783 3.136354-2 63684.9720 3.282617-2 63688.3658 3.442714-22228 3102 1607
 63691.7595 3.618213-2 63695.1532 3.810918-2 63698.3770 4.011802-22228 3102 1608
 63701.4308 4.220010-2 63704.4845 4.447693-2 63707.5383 4.697158-22228 3102 1609
 63710.5920 4.971055-2 63713.6458 5.272429-2 63716.6995 5.604778-22228 3102 1610
 63719.7532 5.972152-2 63722.3826 6.320106-2 63725.6901 6.804956-22228 3102 1611
 63727.8951 7.160999-2 63730.1001 7.546393-2 63732.3051 7.964223-22228 3102 1612
 63734.5101 8.417865-2 63736.7151 8.911180-2 63738.9200 9.448423-22228 3102 1613
 63741.4664 1.012984-1 63744.0126 1.088448-1 63746.5589 1.172167-12228 3102 1614
 63749.1051 1.265172-1 63751.6513 1.368608-1 63754.1963 1.483651-12228 3102 1615
 63756.7408 1.611633-1 63759.2850 1.753917-1 63761.8295 1.911832-12228 3102 1616
 63764.3738 2.086531-1 63766.8332 2.272187-1 63769.1226 2.460170-12228 3102 1617
 63771.4120 2.662573-1 63774.4645 2.953241-1 63778.2800 3.343174-12228 3102 1618
 63784.0489 3.951665-1 63787.5100 4.293846-1 63789.5464 4.474300-12228 3102 1619
 63791.5826 4.632463-1 63793.6188 4.763094-1 63795.6551 4.861559-12228 3102 1620
 63797.6913 4.924204-1 63799.1300 4.945504-1 63800.0000 4.948918-12228 3102 1621
 63801.7251 4.934495-1 63803.5776 4.888120-1 63805.4300 4.811225-12228 3102 1622
 63807.2639 4.707379-1 63809.0976 4.579029-1 63811.2013 4.406251-12228 3102 1623
 63813.8451 4.159294-1 63817.3700 3.797852-1 63822.9351 3.209652-12228 3102 1624
 63825.7176 2.927940-1 63828.5000 2.662821-1 63830.7914 2.459348-12228 3102 1625
 63833.0826 2.270311-1 63835.3739 2.095922-1 63837.6651 1.935924-12228 3102 1626
 63839.9563 1.789703-1 63842.4163 1.647121-1 63844.9608 1.514133-12228 3102 1627
 63847.5050 1.394552-1 63850.0495 1.287034-1 63852.5938 1.190326-12228 3102 1628
 63854.2900 1.131273-1 63856.3263 1.065572-1 63858.3626 1.005056-12228 3102 1629
 63860.3989 9.492474-2 63862.4351 8.977188-2 63864.4714 8.500746-22228 3102 1630
 63866.5076 8.059682-2 63869.5620 7.457508-2 63871.7676 7.062376-22228 3102 1631
 63874.1426 6.670110-2 63876.5176 6.308950-2 63878.8926 5.975852-22228 3102 1632
 63881.2676 5.668110-2 63884.8301 5.248859-2 63888.3926 4.874262-22228 3102 1633
 63891.1070 4.615116-2 63894.1608 4.347599-2 63897.2145 4.102822-22228 3102 1634
 63900.2683 3.878323-2 63903.3220 3.671957-2 63906.3758 3.481853-22228 3102 1635
 63909.4295 3.306377-2 63914.0100 3.067492-2 63918.0813 2.876725-22228 3102 1636
 63922.1526 2.703688-2 63926.2239 2.546280-2 63930.2951 2.402704-22228 3102 1637
 63934.3664 2.271381-2 63938.4376 2.150936-2 63942.5088 2.040162-22228 3102 1638
 63946.5800 1.938031-2 63951.3313 1.828606-2 63956.0826 1.728580-22228 3102 1639
 63960.8339 1.636922-2 63965.5851 1.552732-2 63970.3364 1.475216-22228 3102 1640
 63977.4633 1.369973-2 63984.5900 1.276234-2 63990.6976 1.203804-22228 3102 1641
 63996.8051 1.137766-2 64002.9126 1.077393-2 64009.0200 1.022056-22228 3102 1642
 64015.1276 9.711991-3 64024.2889 9.022843-3 64033.4500 8.410275-32228 3102 1643
 64040.9151 7.959927-3 64048.3801 7.547964-3 64055.8451 7.170220-32228 3102 1644
 64063.3101 6.823274-3 64074.5076 6.353790-3 64085.7051 5.935608-32228 3102 1645
 64096.9020 5.560973-3 64108.0976 5.224593-3 64119.2933 4.921489-32228 3102 1646
 64130.4889 4.647268-3 64141.6845 4.398065-3 64152.8800 4.170827-32228 3102 1647
 64165.6058 3.936753-3 64178.3314 3.725100-3 64191.0570 3.532495-32228 3102 1648
 64203.7826 3.356495-3 64220.7500 3.144696-3 64237.7151 2.955595-32228 3102 1649
 64254.6801 2.785982-3 64271.6451 2.633227-3 64288.6100 2.495044-32228 3102 1650
 64305.5751 2.369569-3 64322.5401 2.255288-3 64339.5051 2.150837-32228 3102 1651
 64364.9526 2.010146-3 64390.4000 1.885992-3 64415.8476 1.776343-32228 3102 1652
 64443.2976 1.670318-3 64471.7489 1.572653-3 64500.2000 1.485553-32228 3102 1653
 64532.1839 1.398723-3 64564.1676 1.321477-3 64596.1501 1.252467-32228 3102 1654
 64628.1300 1.190504-3 64660.1101 1.134624-3 64693.9251 1.081253-32228 3102 1655
 64717.0800 1.047761-3 64763.3900 9.871024-4 64799.1500 9.452759-42228 3102 1656
 64834.9100 9.072420-4 64888.5501 8.564065-4 64942.1951 8.116231-42228 3102 1657
 64995.8401 7.722230-4 65049.4800 7.371180-4 65103.1251 7.062418-42228 3102 1658
 65156.7700 6.779494-4 65228.2900 6.448698-4 65299.8100 6.159581-42228 3102 1659
 65371.3400 5.905513-4 65442.8600 5.681247-4 65514.3900 5.482514-42228 3102 1660
 65585.9100 5.305871-4 65693.1950 5.077432-4 65800.4800 4.882294-42228 3102 1661
 65907.7701 4.719178-4 66015.0500 4.579946-4 66158.1000 4.428910-42228 3102 1662
 66301.1500 4.310291-4 66444.2000 4.219671-4 66587.2400 4.153613-42228 3102 1663
 66730.2900 4.109632-4 66909.1000 4.083245-4 66980.6200 4.080540-42228 3102 1664
 67159.4300 4.095505-4 67302.4800 4.127759-4 67445.5300 4.178423-42228 3102 1665
 67588.5800 4.248056-4 67731.6200 4.337590-4 67874.6700 4.448336-42228 3102 1666
 68032.0250 4.597591-4 68160.7600 4.741340-4 68332.4200 4.970677-42228 3102 1667
 68446.8600 5.149422-4 68561.3000 5.351770-4 68675.7400 5.580637-42228 3102 1668
 68790.1700 5.839524-4 68904.6100 6.132649-4 69019.0500 6.465085-42228 3102 1669
 69162.1001 6.945446-4 69247.9300 7.272883-4 69333.7526 7.637246-42228 3102 1670
 69419.5801 8.038949-4 69505.4101 8.488344-4 69591.2400 8.986416-42228 3102 1671
 69677.0701 9.547326-4 69762.9000 1.017306-3 69820.1200 1.063518-32228 3102 1672
 69877.3350 1.113670-3 69934.5500 1.168219-3 69991.7701 1.227669-32228 3102 1673
 70048.9900 1.292613-3 70106.2100 1.363734-3 70163.4300 1.441824-32228 3102 1674
 70220.6500 1.527805-3 70277.8700 1.622760-3 70335.0900 1.727957-32228 3102 1675
 70392.3100 1.844900-3 70456.6751 1.992353-3 70499.5876 2.101793-32228 3102 1676
 70542.5026 2.221355-3 70585.4176 2.352192-3 70628.3326 2.495768-32228 3102 1677
 70671.2476 2.653729-3 70714.1626 2.828062-3 70757.0776 3.021013-32228 3102 1678
 70799.9926 3.235321-3 70832.1788 3.411999-3 70864.3650 3.603977-32228 3102 1679
 70896.5513 3.813002-3 70928.7376 4.040955-3 70960.9239 4.289945-32228 3102 1680
 70993.1100 4.564450-3 71025.2926 4.865605-3 71057.4751 5.197604-32228 3102 1681
 71078.9300 5.437720-3 71114.6950 5.875088-3 71141.5188 6.239139-32228 3102 1682
 71168.3401 6.637631-3 71195.1601 7.074423-3 71221.9800 7.554237-32228 3102 1683
 71248.8039 8.082527-3 71275.6276 8.665359-3 71302.4501 9.309737-32228 3102 1684
 71329.2701 1.002366-2 71356.0901 1.081606-2 71382.9101 1.169731-22228 3102 1685
 71409.7301 1.267893-2 71427.6101 1.339537-2 71445.4913 1.416628-22228 3102 1686
 71463.3739 1.499602-2 71481.2564 1.588898-2 71499.1388 1.684989-22228 3102 1687
 71517.0201 1.788326-2 71534.9001 1.899357-2 71552.7801 2.018517-22228 3102 1688
 71570.6601 2.146154-2 71597.4801 2.353970-2 71624.3001 2.581678-22228 3102 1689
 71651.1200 2.828436-2 71685.4551 3.167410-2 71751.2600 3.841931-22228 3102 1690
 71774.8626 4.066592-2 71797.0351 4.254351-2 71818.4926 4.405224-22228 3102 1691
 71832.7976 4.484769-2 71849.1051 4.551725-2 71867.4151 4.594032-22228 3102 1692
 71879.4300 4.601936-2 71894.4526 4.589099-2 71910.1164 4.549597-22228 3102 1693
 71925.7800 4.484782-2 71945.0889 4.373241-2 71964.3976 4.231877-22228 3102 1694
 71985.1376 4.053764-2 72008.7400 3.828012-2 72083.1289 3.067362-22228 3102 1695
 72108.8800 2.816293-2 72135.7001 2.571065-2 72162.5201 2.345082-22228 3102 1696
 72189.3401 2.139102-2 72207.2201 2.012719-2 72225.1001 1.894825-22228 3102 1697
 72242.9801 1.785062-2 72260.8613 1.682990-2 72278.7439 1.588155-22228 3102 1698
 72296.6264 1.500107-2 72314.5088 1.418370-2 72332.3901 1.342504-22228 3102 1699
 72359.2100 1.238767-2 72386.0301 1.145888-2 72412.8501 1.062635-22228 3102 1700
 72439.6701 9.879013-3 72466.4900 9.207118-3 72493.3139 8.606364-32228 3102 1701
 72520.1376 8.060066-3 72548.7488 7.535228-3 72570.2064 7.176212-32228 3102 1702
 72602.3926 6.688946-3 72634.5788 6.255148-3 72666.7651 5.868182-32228 3102 1703
 72698.9513 5.522484-3 72731.1351 5.213417-3 72763.3176 4.936979-32228 3102 1704
 72795.5000 4.689918-3 72827.6864 4.469283-3 72859.8726 4.272604-32228 3102 1705
 72892.0588 4.097775-3 72924.2450 3.943058-3 72956.4313 3.807078-32228 3102 1706
 72988.6176 3.688795-3 73031.5326 3.557468-3 73063.7188 3.478194-32228 3102 1707
 73095.9051 3.415174-3 73128.0913 3.368645-3 73167.4300 3.335088-32228 3102 1708
 73196.0400 3.328131-3 73228.2264 3.339528-3 73260.4126 3.373776-32228 3102 1709
 73290.8101 3.430222-3 73317.6301 3.501158-3 73344.4501 3.598590-32228 3102 1710
 73362.3301 3.680231-3 73380.2101 3.777320-3 73398.0901 3.892250-32228 3102 1711
 73415.9701 4.027957-3 73433.9713 4.189299-3 73452.0939 4.381547-32228 3102 1712
 73465.6858 4.548976-3 73479.2776 4.739936-3 73492.8695 4.957564-32228 3102 1713
 73505.6438 5.190182-3 73518.0095 5.448063-3 73530.3751 5.742922-32228 3102 1714
 73542.7408 6.079992-3 73555.1063 6.467484-3 73566.4976 6.879119-32228 3102 1715
 73575.9401 7.267249-3 73585.3826 7.705177-3 73594.8251 8.201268-32228 3102 1716
 73604.2676 8.765722-3 73610.5626 9.186160-3 73616.5420 9.622973-32228 3102 1717
 73622.2058 1.007455-2 73627.8695 1.056729-2 73633.5333 1.110598-22228 3102 1718
 73639.1970 1.169615-2 73644.8608 1.234428-2 73650.5245 1.305797-22228 3102 1719
 73656.1882 1.384602-2 73661.2232 1.461715-2 73665.6295 1.535311-22228 3102 1720
 73670.0358 1.615260-2 73674.4420 1.702268-2 73678.8483 1.797131-22228 3102 1721
 73683.2545 1.900739-2 73687.6608 2.014083-2 73692.0670 2.138287-22228 3102 1722
 73696.0007 2.259395-2 73701.1926 2.435853-2 73704.6539 2.565234-22228 3102 1723
 73708.1150 2.705052-2 73711.5764 2.856292-2 73715.0376 3.019986-22228 3102 1724
 73718.4988 3.197256-2 73721.9600 3.389276-2 73726.2070 3.646881-22228 3102 1725
 73730.4539 3.930927-2 73734.7008 4.243775-2 73738.9476 4.587612-22228 3102 1726
 73743.1945 4.964273-2 73747.2538 5.356060-2 73751.2195 5.768903-22228 3102 1727
 73756.5070 6.363510-2 73760.4726 6.838628-2 73774.5726 8.617097-22228 3102 1728
 73779.8600 9.242177-2 73783.6364 9.639903-2 73787.4126 9.978907-22228 3102 1729
 73791.0751 1.023733-1 73794.5100 1.040617-1 73797.9451 1.049655-12228 3102 1730
 73800.0000 1.051135-1 73802.2126 1.049401-1 73805.4376 1.040775-12228 3102 1731
 73808.3088 1.027258-1 73812.0850 1.001816-1 73815.8613 9.688263-22228 3102 1732
 73819.8901 9.269898-2 73825.4301 8.617571-2 73838.2701 6.997964-22228 3102 1733
 73843.3051 6.391683-2 73848.3400 5.824649-2 73852.4933 5.391218-22228 3102 1734
 73856.6464 4.990409-2 73860.7995 4.622138-2 73864.9526 4.285366-22228 3102 1735
 73869.1057 3.978403-2 73873.6363 3.675146-2 73878.3558 3.391317-22228 3102 1736
 73883.0750 3.137011-2 73887.7945 2.909107-2 73892.5138 2.704741-22228 3102 1737
 73895.6600 2.580259-2 73900.0663 2.420141-2 73904.4726 2.274964-22228 3102 1738
 73908.8789 2.143071-2 73913.2851 2.023027-2 73917.6914 1.913587-22228 3102 1739
 73922.0976 1.813672-2 73926.5038 1.722315-2 73930.9100 1.638651-22228 3102 1740
 73936.5738 1.541164-2 73942.2376 1.453669-2 73947.9014 1.374937-22228 3102 1741
 73953.5651 1.303924-2 73959.2289 1.239732-2 73964.8926 1.181582-22228 3102 1742
 73970.5563 1.128793-2 73976.2200 1.080780-2 73982.5138 1.032414-22228 3102 1743
 73988.8076 9.887148-3 73998.2483 9.307958-3 74007.6889 8.807635-32228 3102 1744
 74017.1295 8.374262-3 74026.5700 7.998097-3 74034.7526 7.712255-32228 3102 1745
 74042.9351 7.459374-3 74055.2089 7.134225-3 74067.4826 6.863970-32228 3102 1746
 74079.7564 6.640476-3 74092.0300 6.458013-3 74105.2470 6.301685-32228 3102 1747
 74118.4639 6.182105-3 74131.6808 6.095313-3 74144.8976 6.038218-32228 3102 1748
 74162.5200 6.004503-3 74167.5500 6.003444-3 74186.1001 6.028791-32228 3102 1749
 74204.6500 6.100117-3 74223.2001 6.217550-3 74241.7500 6.379820-32228 3102 1750
 74258.0401 6.561500-3 74274.3301 6.781788-3 74290.6201 7.043605-32228 3102 1751
 74306.9100 7.350679-3 74323.2001 7.707756-3 74339.4900 8.120898-32228 3102 1752
 74351.7076 8.472127-3 74363.9251 8.862959-3 74376.1426 9.297840-32228 3102 1753
 74388.3601 9.781930-3 74400.5776 1.032144-2 74412.7951 1.092333-22228 3102 1754
 74425.0126 1.159441-2 74437.2300 1.234709-2 74449.4476 1.319532-22228 3102 1755
 74461.6651 1.415222-2 74469.8101 1.485906-2 74477.9551 1.562807-22228 3102 1756
 74486.1001 1.646613-2 74494.2451 1.738129-2 74502.3900 1.838284-22228 3102 1757
 74512.1645 1.971378-2 74521.9389 2.120560-2 74528.4551 2.230204-22228 3102 1758
 74534.9714 2.349025-2 74541.4876 2.478009-2 74548.0038 2.618276-22228 3102 1759
 74554.5200 2.771100-2 74560.2213 2.916271-2 74565.9226 3.073297-22228 3102 1760
 74571.6239 3.243426-2 74577.3250 3.428043-2 74583.0264 3.628725-22228 3102 1761
 74588.7276 3.847246-2 74594.4288 4.085623-2 74600.1300 4.346063-22228 3102 1762
 74606.8501 4.684744-2 74613.5701 5.062253-2 74618.0501 5.338344-22228 3102 1763
 74622.5301 5.636257-2 74627.0101 5.958063-2 74631.4901 6.305978-22228 3102 1764
 74635.9700 6.682370-2 74641.4676 7.187032-2 74646.9651 7.743749-22228 3102 1765
 74652.4626 8.358231-2 74657.9601 9.036506-2 74663.4576 9.784804-22228 3102 1766
 74668.7113 1.057096-1 74673.8433 1.141068-1 74678.9750 1.232504-12228 3102 1767
 74684.1070 1.331635-1 74689.2388 1.438456-1 74695.7551 1.584626-12228 3102 1768
 74701.9451 1.732853-1 74717.4200 2.120516-1 74723.9351 2.274718-12228 3102 1769
 74728.8213 2.378657-1 74733.7076 2.467688-1 74738.5939 2.537597-12228 3102 1770
 74741.8513 2.571758-1 74744.9801 2.594261-1 74749.4800 2.607904-12228 3102 1771
 74750.0000 2.608025-1 74754.1351 2.598225-1 74758.5826 2.566826-12228 3102 1772
 74763.0300 2.515252-1 74767.4289 2.446640-1 74771.8276 2.363344-12228 3102 1773
 74776.8776 2.253664-1 74783.2300 2.101512-1 74798.3801 1.721465-12228 3102 1774
 74805.0601 1.562250-1 74810.0701 1.449896-1 74815.0801 1.344512-12228 3102 1775
 74820.2526 1.243386-1 74825.7501 1.144492-1 74831.2476 1.054190-12228 3102 1776
 74836.7451 9.720351-2 74842.2426 8.974644-2 74847.7400 8.298685-22228 3102 1777
 74851.8126 7.839213-2 74855.8851 7.412132-2 74859.9576 7.015053-22228 3102 1778
 74866.0664 6.470806-2 74872.1751 5.982005-2 74878.2838 5.542345-22228 3102 1779
 74882.7638 5.247906-2 74887.6514 4.951091-2 74892.5389 4.677428-22228 3102 1780
 74897.4264 4.424679-2 74902.3139 4.190815-2 74909.6451 3.871653-22228 3102 1781
 74916.9763 3.586121-2 74922.2707 3.398429-2 74927.9720 3.211833-22228 3102 1782
 74933.6733 3.039799-2 74939.3745 2.880928-2 74945.0758 2.733967-22228 3102 1783
 74953.6276 2.533432-2 74962.1795 2.353901-2 74968.6951 2.229510-22228 3102 1784
 74976.0251 2.100947-2 74983.3551 1.983163-2 74990.6851 1.875002-22228 3102 1785
 74998.0151 1.775465-2 75005.3451 1.683686-2 75012.6751 1.598900-22228 3102 1786
 75023.6700 1.483345-2 75031.8151 1.405720-2 75039.9601 1.334124-22228 3102 1787
 75052.1776 1.236736-2 75064.3951 1.149827-2 75076.6126 1.072004-22228 3102 1788
 75088.8300 1.002171-2 75101.0476 9.391456-3 75113.2651 8.819354-32228 3102 1789
 75125.4826 8.299338-3 75137.7001 7.825549-3 75149.9176 7.392755-32228 3102 1790
 75162.1351 6.996409-3 75178.4251 6.517916-3 75194.7151 6.089066-32228 3102 1791
 75211.0051 5.703203-3 75227.2951 5.354832-3 75243.5851 5.039294-32228 3102 1792
 75259.8751 4.752452-3 75276.1651 4.490904-3 75292.4551 4.251795-32228 3102 1793
 75308.7451 4.032657-3 75325.0351 3.831222-3 75349.4700 3.558236-32228 3102 1794
 75369.0176 3.361989-3 75388.5651 3.182934-3 75408.1126 3.020057-32228 3102 1795
 75427.6600 2.869607-3 75456.9851 2.665825-3 75486.3101 2.485025-32228 3102 1796
 75515.6338 2.323834-3 75544.9551 2.179401-3 75574.2763 2.049413-32228 3102 1797
 75603.5976 1.931733-3 75632.9189 1.825519-3 75662.2400 1.729029-32228 3102 1798
 75694.8200 1.631483-3 75727.4000 1.542925-3 75759.9800 1.462341-32228 3102 1799
 75792.5600 1.388776-3 75825.1401 1.321407-3 75857.7200 1.259538-32228 3102 1800
 75906.5901 1.175831-3 75955.4600 1.101268-3 76004.3301 1.034796-32228 3102 1801
 76053.2000 9.749961-4 76102.0701 9.211764-4 76150.9401 8.723479-42228 3102 1802
 76199.8101 8.280419-4 76248.6800 7.876282-4 76313.8400 7.390105-42228 3102 1803
 76379.0000 6.954830-4 76444.1600 6.563880-4 76509.3200 6.211107-42228 3102 1804
 76574.4800 5.891411-4 76639.6400 5.600534-4 76704.8000 5.334905-42228 3102 1805
 76769.9600 5.091492-4 76835.1200 4.867721-4 76932.8601 4.565201-42228 3102 1806
 77030.6000 4.293806-4 77128.3400 4.052332-4 77226.0800 3.833515-42228 3102 1807
 77323.8200 3.636792-4 77421.5600 3.457011-4 77486.7200 3.346573-42228 3102 1808
 77617.0400 3.144198-4 77747.3600 2.963348-4 77877.6800 2.800995-42228 3102 1809
 78008.0000 2.654505-4 78138.3200 2.521735-4 78268.6400 2.400893-42228 3102 1810
 78398.9600 2.290478-4 78529.2800 2.189238-4 78659.6000 2.096103-42228 3102 1811
 78789.9200 2.010161-4 78985.4000 1.893584-4 79180.8800 1.788221-42228 3102 1812
 79376.3601 1.694244-4 79571.8400 1.608508-4 79702.1600 1.556061-42228 3102 1813
 79962.8000 1.460341-4 80223.4400 1.375208-4 80484.0800 1.299079-42228 3102 1814
 80744.7200 1.230624-4 81005.3600 1.168762-4 81266.0000 1.112593-42228 3102 1815
 81559.2201 1.055570-4 81852.4400 1.003460-4 82047.9200 9.715462-52228 3102 1816
 82438.8800 9.132465-5 82829.8400 8.613092-5 83220.8001 8.150053-52228 3102 1817
 83611.7600 7.728705-5 84002.7201 7.350914-5 84393.6800 7.004142-52228 3102 1818
 84914.9600 6.589733-5 85386.3700 6.253475-5 85857.7800 5.948581-52228 3102 1819
 86329.1800 5.670823-5 86800.5900 5.416710-5 87272.0000 5.183330-52228 3102 1820
 87743.4100 4.968213-5 88450.5151 4.676904-5 89157.6300 4.413096-52228 3102 1821
 89864.7351 4.178065-5 90571.8500 3.963011-5 91278.9600 3.769200-52228 3102 1822
 91986.0700 3.593565-5 92457.4800 3.480021-5 93400.2900 3.276586-52228 3102 1823
 94343.1100 3.093404-5 95285.9300 2.927554-5 96228.7400 2.776676-52228 3102 1824
 97171.5500 2.638789-5 98114.3700 2.512294-5 99292.8851 2.368870-52228 3102 1825
 99944.7568 2.294642-5 99952.1226 2.299939-5 99954.8848 2.315028-52228 3102 1826
 99956.2659 2.332440-5 99957.6470 2.362887-5 99958.5678 2.394559-52228 3102 1827
 99959.4884 2.439577-5 99960.1791 2.485129-5 99960.8696 2.543801-52228 3102 1828
 99961.5602 2.619054-5 99962.2506 2.715129-5 99962.7110 2.793293-52228 3102 1829
 99963.1713 2.884818-5 99963.6317 2.991843-5 99964.0921 3.116675-52228 3102 1830
 99964.5525 3.262035-5 99965.0128 3.430913-5 99965.3582 3.575146-52228 3102 1831
 99965.7034 3.736095-5 99966.0487 3.915593-5 99966.3939 4.115492-52228 3102 1832
 99966.7392 4.337963-5 99967.0844 4.585217-5 99967.4298 4.859782-52228 3102 1833
 99967.7749 5.164147-5 99968.1203 5.501506-5 99968.4655 5.874663-52228 3102 1834
 99968.8108 6.287204-5 99969.1560 6.742662-5 99969.5013 7.245118-52228 3102 1835
 99969.8466 7.798572-5 99970.1919 8.407727-5 99970.5370 9.077078-52228 3102 1836
 99970.8824 9.812735-5 99971.2277 1.061935-4 99971.5730 1.150326-42228 3102 1837
 99971.9182 1.247050-4 99972.2635 1.352821-4 99972.6088 1.468322-42228 3102 1838
 99972.9541 1.594344-4 99973.2993 1.731612-4 99973.6446 1.881111-42228 3102 1839
 99973.9898 2.043595-4 99974.3351 2.220106-4 99974.6804 2.411599-42228 3102 1840
 99975.0257 2.619176-4 99975.3710 2.843844-4 99975.7163 3.086820-42228 3102 1841
 99976.0614 3.349163-4 99976.4068 3.632432-4 99976.7520 3.937616-42228 3102 1842
 99977.0973 4.266224-4 99977.4425 4.619549-4 99977.7878 4.999199-42228 3102 1843
 99978.1331 5.406592-4 99978.4784 5.843378-4 99978.8236 6.310863-42228 3102 1844
 99979.1690 6.811147-4 99979.5142 7.345423-4 99979.8595 7.915711-42228 3102 1845
 99980.2047 8.523607-4 99980.5501 9.171093-4 99981.0104 1.009879-32228 3102 1846
 99981.3556 1.084515-3 99981.8160 1.191164-3 99982.2764 1.306357-32228 3102 1847
 99982.7367 1.430522-3 99983.1971 1.564096-3 99983.6574 1.707525-32228 3102 1848
 99984.1178 1.861235-3 99984.5781 2.025629-3 99985.0384 2.201106-32228 3102 1849
 99985.4988 2.388079-3 99985.9592 2.586912-3 99986.4196 2.797914-32228 3102 1850
 99986.8800 3.021395-3 99987.3403 3.257648-3 99988.0308 3.636456-32228 3102 1851
 99988.7214 4.045222-3 99989.4119 4.484315-3 99990.1025 4.953984-32228 3102 1852
 99990.7930 5.454009-3 99991.4836 5.984283-3 99992.1741 6.543901-32228 3102 1853
 99993.0948 7.334269-3 99994.0155 8.172235-3 99995.1665 9.280356-32228 3102 1854
 99996.3172 1.044641-2 99997.6984 1.190590-2 100002.757 1.742370-22228 3102 1855
 100004.824 1.955285-2 100006.202 2.087222-2 100007.580 2.209206-22228 3102 1856
 100008.958 2.320008-2 100010.335 2.418916-2 100011.713 2.505714-22228 3102 1857
 100013.091 2.580567-2 100014.469 2.643975-2 100016.534 2.719462-22228 3102 1858
 100018.602 2.774686-2 100020.668 2.813467-2 100023.424 2.846223-22228 3102 1859
 100027.557 2.869842-2 100033.068 2.879399-2 100044.089 2.881359-22228 3102 1860
 108594.038 2.736124-2 117311.629 2.604427-2 129490.665 2.446784-22228 3102 1861
 139675.992 2.331750-2 153551.582 2.195554-2 163437.000 2.109716-22228 3102 1862
 168796.366 1.980254-2 174236.666 1.859755-2 180707.500 1.730404-22228 3102 1863
 186656.169 1.623649-2 191572.848 1.542979-2 195646.036 1.479958-22228 3102 1864
 200000.000 1.416508-2 213366.236 1.331755-2 224614.896 1.267654-22228 3102 1865
 236537.400 1.205874-2 252788.908 1.131680-2 268037.927 1.069847-22228 3102 1866
 287343.150 1.000832-2 300000.000 9.600296-3 324645.038 9.036487-32228 3102 1867
 347471.365 8.576734-3 375576.415 8.077096-3 400000.000 7.694253-32228 3102 1868
 428915.542 7.364517-3 463107.222 7.013088-3 500000.000 6.678335-32228 3102 1869
 555449.980 6.330898-3 600000.000 6.083291-3 671190.895 5.844093-32228 3102 1870
 704937.870 5.743073-3 805643.280 5.524668-3 906348.691 5.395836-32228 3102 1871
 1000000.00 5.335905-3 1313612.12 5.484985-3 1500000.00 5.562521-32228 3102 1872
 1583300.00 5.652015-3 1832540.00 5.548264-3 2000000.00 5.610615-32228 3102 1873
 2227110.22 5.870383-3 2500000.00 6.112723-3 2580270.00 6.274282-32228 3102 1874
 2911230.00 6.669902-3 3000000.00 6.708082-3 3184161.60 6.409357-32228 3102 1875
 3350019.23 6.161786-3 3500000.00 5.954002-3 3644339.47 5.535050-32228 3102 1876
 3736735.67 5.290495-3 3852563.00 5.002883-3 4000000.00 4.673468-32228 3102 1877
 4119534.00 4.350679-3 4241231.51 4.054564-3 4342270.35 3.830412-32228 3102 1878
 4420540.51 3.667209-3 4563486.90 3.389744-3 4652695.69 3.225639-32228 3102 1879
 4745524.93 3.068487-3 4854010.00 2.895005-3 5000000.00 2.684817-32228 3102 1880
 5156689.00 2.498804-3 5249671.32 2.397193-3 5354526.00 2.287727-32228 3102 1881
 5500000.00 2.148845-3 5660601.75 2.025804-3 5807384.00 1.920265-32228 3102 1882
 6000000.00 1.794962-3 6164453.08 1.699615-3 6352290.82 1.598821-32228 3102 1883
 6545851.66 1.503535-3 6714966.12 1.427557-3 6856170.34 1.367823-32228 3102 1884
 7049378.71 1.292067-3 7245688.00 1.219460-3 7500000.00 1.134892-32228 3102 1885
 7745967.00 1.064047-3 8000000.00 9.976258-4 8246211.00 9.388018-42228 3102 1886
 8500000.00 8.834461-4 8808126.18 8.263702-4 9240211.00 7.529104-42228 3102 1887
 9491048.84 7.144433-4 9776502.36 6.738281-4 10000000.0 6.441100-42228 3102 1888
 10141082.0 6.254155-4 10241140.0 6.121570-4 10385624.1 5.942236-42228 3102 1889
 10425800.0 5.892370-4 10572889.3 5.722141-4 10709050.0 5.564560-42228 3102 1890
 10860135.4 5.403806-4 11000000.0 5.254990-4 11155190.2 5.107421-42228 3102 1891
 11241900.0 5.024970-4 11400503.0 4.886184-4 11561343.6 4.745441-42228 3102 1892
 11614770.0 4.698690-4 11778633.5 4.568911-4 11944808.8 4.437301-42228 3102 1893
 12000000.0 4.393590-4 12169298.4 4.298679-4 12340985.3 4.202429-42228 3102 1894
 12490000.0 4.118890-4 12666211.4 4.029914-4 12844908.9 3.939682-42228 3102 1895
 13000000.0 3.861370-4 13183406.6 3.802271-4 13369400.7 3.742339-42228 3102 1896
 13490740.0 3.703240-4 13681070.1 3.646563-4 13874085.3 3.589086-42228 3102 1897
 14000000.0 3.551590-4 14197514.8 3.524592-4 14397816.2 3.497213-42228 3102 1898
 14600943.4 3.469447-4 14806936.5 3.441290-4 15000000.0 3.414900-42228 3102 1899
 15211623.0 3.400023-4 15426231.6 3.384936-4 15643868.0 3.369636-42228 3102 1900
 15864574.8 3.354120-4 16000000.0 3.344600-4 16225731.2 3.338198-42228 3102 1901
 16454647.1 3.331706-4 16686792.5 3.325123-4 16922213.1 3.318446-42228 3102 1902
 17000000.0 3.316240-4 17239839.4 3.310381-4 17483062.5 3.304439-42228 3102 1903
 17729717.0 3.298413-4 17979851.4 3.292302-4 18000000.0 3.291810-42228 3102 1904
 18253947.6 3.287902-4 18511477.9 3.283938-4 18772641.6 3.279919-42228 3102 1905
 19000000.0 3.276420-4 19268055.8 3.270970-4 19539893.4 3.265444-42228 3102 1906
 19815566.1 3.259840-4 20000000.0 3.256090-4                      2228 3102 1907
                                                                  2228 3  099999
 2.204700+4 4.654840+1          0          0          0          02228 3103    1
 1.823000+5 1.823000+5          0          0          1        2042228 3103    2
        204          2          0          0          0          02228 3103    3
 1.000000-5 0.000000+0 2.530000-2 0.000000+0 1.000000+4 0.000000+02228 3103    4
 1.000000+5 0.000000+0 6.600000+5 0.000000+0 6.900000+5 1.310040-52228 3103    5
 7.200000+5 7.860250-5 7.600000+5 1.572050-4 8.000000+5 2.358070-42228 3103    6
 8.400000+5 3.144100-4 8.800000+5 3.930120-4 9.200000+5 4.716150-42228 3103    7
 9.600000+5 5.502170-4 1.000000+6 6.994430-4 1.100000+6 9.530090-42228 3103    8
 1.200000+6 1.951210-3 1.300000+6 3.423170-3 1.400000+6 3.008490-32228 3103    9
 1.500000+6 3.976960-3 1.600000+6 6.855470-3 1.700000+6 9.564780-32228 3103   10
 1.800000+6 1.116230-2 1.900000+6 1.309380-2 2.000000+6 1.519150-22228 3103   11
 2.100000+6 1.722760-2 2.200000+6 1.880790-2 2.300000+6 2.040220-22228 3103   12
 2.400000+6 2.221420-2 2.500000+6 2.406950-2 2.600000+6 2.634450-22228 3103   13
 2.700000+6 2.871490-2 2.800000+6 3.035350-2 2.900000+6 3.180480-22228 3103   14
 3.000000+6 3.325620-2 3.100000+6 3.465640-2 3.200000+6 3.600070-22228 3103   15
 3.300000+6 3.734500-2 3.400000+6 3.867990-2 3.500000+6 3.995270-22228 3103   16
 3.600000+6 4.121420-2 3.700000+6 4.247440-2 3.800000+6 4.372580-22228 3103   17
 3.900000+6 4.497560-2 4.000000+6 4.622540-2 4.100000+6 4.747510-22228 3103   18
 4.200000+6 4.876250-2 4.300000+6 5.008880-2 4.400000+6 5.141510-22228 3103   19
 4.500000+6 5.289030-2 4.600000+6 5.469300-2 4.700000+6 5.642460-22228 3103   20
 4.800000+6 5.772130-2 4.900000+6 5.895460-2 5.000000+6 6.018800-22228 3103   21
 5.100000+6 6.141340-2 5.200000+6 6.259920-2 5.300000+6 6.377960-22228 3103   22
 5.400000+6 6.496680-2 5.500000+6 6.653180-2 5.600000+6 6.831460-22228 3103   23
 5.700000+6 7.009750-2 5.800000+6 7.186650-2 5.900000+6 7.346050-22228 3103   24
 6.000000+6 7.500190-2 6.100000+6 7.654320-2 6.200000+6 7.811950-22228 3103   25
 6.300000+6 7.976090-2 6.400000+6 8.140360-2 6.500000+6 8.282420-22228 3103   26
 6.600000+6 8.379540-2 6.700000+6 8.475380-2 6.800000+6 8.571670-22228 3103   27
 6.900000+6 8.704940-2 7.000000+6 8.861610-2 7.100000+6 9.018400-22228 3103   28
 7.200000+6 9.189150-2 7.300000+6 9.369440-2 7.400000+6 9.555290-22228 3103   29
 7.500000+6 9.780000-2 7.600000+6 1.001140-1 7.700000+6 1.021710-12228 3103   30
 7.800000+6 1.041040-1 7.900000+6 1.060180-1 8.000000+6 1.075710-12228 3103   31
 8.100000+6 1.089860-1 8.200000+6 1.104480-1 8.300000+6 1.129770-12228 3103   32
 8.400000+6 1.158100-1 8.500000+6 1.177630-1 8.600000+6 1.195510-12228 3103   33
 8.700000+6 1.213390-1 8.800000+6 1.229040-1 8.900000+6 1.242880-12228 3103   34
 9.000000+6 1.256540-1 9.100000+6 1.269560-1 9.200000+6 1.282500-12228 3103   35
 9.300000+6 1.294950-1 9.400000+6 1.304510-1 9.500000+6 1.313590-12228 3103   36
 9.600000+6 1.322620-1 9.700000+6 1.331490-1 9.800000+6 1.340340-12228 3103   37
 9.900000+6 1.349190-1 1.000000+7 1.358320-1 1.010000+7 1.368460-12228 3103   38
 1.020000+7 1.378690-1 1.030000+7 1.388260-1 1.040000+7 1.396560-12228 3103   39
 1.050000+7 1.404820-1 1.060000+7 1.413080-1 1.070000+7 1.420080-12228 3103   40
 1.080000+7 1.424880-1 1.090000+7 1.429650-1 1.100000+7 1.434410-12228 3103   41
 1.110000+7 1.439170-1 1.120000+7 1.443110-1 1.130000+7 1.446320-12228 3103   42
 1.140000+7 1.449530-1 1.150000+7 1.452740-1 1.160000+7 1.455400-12228 3103   43
 1.170000+7 1.456430-1 1.180000+7 1.457350-1 1.190000+7 1.458280-12228 3103   44
 1.200000+7 1.459200-1 1.210000+7 1.458840-1 1.220000+7 1.457080-12228 3103   45
 1.230000+7 1.455330-1 1.240000+7 1.453570-1 1.250000+7 1.450630-12228 3103   46
 1.260000+7 1.446710-1 1.270000+7 1.442790-1 1.280000+7 1.438880-12228 3103   47
 1.290000+7 1.434910-1 1.300000+7 1.428770-1 1.310000+7 1.421470-12228 3103   48
 1.320000+7 1.414160-1 1.330000+7 1.406690-1 1.340000+7 1.397240-12228 3103   49
 1.350000+7 1.387230-1 1.360000+7 1.377220-1 1.370000+7 1.367200-12228 3103   50
 1.380000+7 1.356830-1 1.390000+7 1.343310-1 1.400000+7 1.329050-12228 3103   51
 1.410000+7 1.314780-1 1.420000+7 1.300560-1 1.430000+7 1.288910-12228 3103   52
 1.440000+7 1.278760-1 1.450000+7 1.268600-1 1.460000+7 1.258350-12228 3103   53
 1.470000+7 1.245840-1 1.480000+7 1.232390-1 1.490000+7 1.218950-12228 3103   54
 1.500000+7 1.205500-1 1.510000+7 1.191190-1 1.520000+7 1.176230-12228 3103   55
 1.530000+7 1.161260-1 1.540000+7 1.146810-1 1.550000+7 1.134020-12228 3103   56
 1.560000+7 1.121350-1 1.570000+7 1.108690-1 1.580000+7 1.096020-12228 3103   57
 1.590000+7 1.083350-1 1.600000+7 1.070240-1 1.610000+7 1.056790-12228 3103   58
 1.620000+7 1.043340-1 1.630000+7 1.029890-1 1.640000+7 1.018720-12228 3103   59
 1.650000+7 1.010920-1 1.660000+7 1.003150-1 1.670000+7 9.953760-22228 3103   60
 1.680000+7 9.876010-2 1.690000+7 9.780160-2 1.700000+7 9.668520-22228 3103   61
 1.710000+7 9.556880-2 1.720000+7 9.445240-2 1.730000+7 9.333600-22228 3103   62
 1.740000+7 9.223600-2 1.750000+7 9.122530-2 1.760000+7 9.022820-22228 3103   63
 1.770000+7 8.923110-2 1.780000+7 8.823440-2 1.790000+7 8.743570-22228 3103   64
 1.800000+7 8.679830-2 1.810000+7 8.616080-2 1.820000+7 8.552340-22228 3103   65
 1.830000+7 8.488600-2 1.840000+7 8.425840-2 1.850000+7 8.371310-22228 3103   66
 1.860000+7 8.318640-2 1.870000+7 8.265960-2 1.880000+7 8.213290-22228 3103   67
 1.890000+7 8.162370-2 1.900000+7 8.124260-2 1.910000+7 8.088720-22228 3103   68
 1.920000+7 8.053170-2 1.930000+7 8.017630-2 1.940000+7 7.980050-22228 3103   69
 1.950000+7 7.937720-2 1.960000+7 7.895190-2 1.970000+7 7.852660-22228 3103   70
 1.980000+7 7.810130-2 1.990000+7 7.767590-2 2.000000+7 7.767590-22228 3103   71
                                                                  2228 3  099999
 2.204700+4 4.654840+1          0          0          0          02228 3104    1
-8.235430+6-8.235430+6          0          0          1         132228 3104    2
         13          2          0          0          0          02228 3104    3
 8.412330+6 0.000000+0 9.000000+6 0.000000+0 1.000000+7 2.068420-72228 3104    4
 1.100000+7 1.907930-5 1.200000+7 1.974090-4 1.300000+7 5.578980-42228 3104    5
 1.400000+7 1.138360-3 1.500000+7 1.923300-3 1.600000+7 2.890290-32228 3104    6
 1.700000+7 3.663000-3 1.800000+7 4.938810-3 1.900000+7 5.902670-32228 3104    7
 2.000000+7 6.882690-3                                            2228 3104    8
                                                                  2228 3  099999
 2.204700+4 4.654840+1          0          0          0          02228 3105    1
-1.074480+7-1.074480+7          0          0          1         102228 3105    2
         10          2          0          0          0          02228 3105    3
 1.097560+7 0.000000+0 1.200000+7 0.000000+0 1.300000+7 3.130780-72228 3105    4
 1.400000+7 1.295250-5 1.500000+7 6.760940-5 1.600000+7 2.063300-42228 3105    5
 1.700000+7 4.519940-4 1.800000+7 7.676870-4 1.900000+7 1.202030-32228 3105    6
 2.000000+7 1.651970-3                                            2228 3105    7
                                                                  2228 3  099999
 2.204700+4 4.654840+1          0          0          0          02228 3106    1
-1.098290+7-1.098290+7          0          0          1         102228 3106    2
         10          2          0          0          0          02228 3106    3
 1.121880+7 0.000000+0 1.200000+7 0.000000+0 1.300000+7 4.10660-132228 3106    4
 1.400000+7 9.59540-10 1.500000+7 4.250360-8 1.600000+7 6.363760-72228 3106    5
 1.700000+7 4.621070-6 1.800000+7 1.547830-5 1.900000+7 4.454100-52228 3106    6
 2.000000+7 8.900670-5                                            2228 3106    7
                                                                  2228 3  099999
 2.204700+4 4.654840+1          0          0          0          02228 3107    1
 2.181150+6 2.181150+6          0          0          1         202228 3107    2
         20          2          0          0          0          02228 3107    3
 1.000000-5 0.000000+0 2.530000-2 0.000000+0 1.000000+6 0.000000+02228 3107    4
 2.000000+6 3.444680-5 3.000000+6 2.347420-3 5.000000+6 1.748800-22228 3107    5
 6.000000+6 2.816390-2 7.000000+6 3.937210-2 8.000000+6 5.016210-22228 3107    6
 9.000000+6 5.775760-2 1.000000+7 6.254770-2 1.100000+7 6.631670-22228 3107    7
 1.200000+7 6.950470-2 1.300000+7 7.191110-2 1.400000+7 7.396270-22228 3107    8
 1.500000+7 7.476280-2 1.600000+7 7.322510-2 1.700000+7 6.781130-22228 3107    9
 1.850000+7 5.468200-2 2.000000+7 4.194510-2                      2228 3107   10
                                                                  2228 3  099999
 2.204700+4 4.654840+1          0          0          0          02228 3111    1
-8.299700+6-8.299700+6          0          0          1         132228 3111    2
         13          2          0          0          0          02228 3111    3
 8.478000+6 0.000000+0 9.000000+6 0.000000+0 1.000000+7 1.15120-112228 3111    4
 1.100000+7 6.234800-7 1.200000+7 5.738870-5 1.300000+7 4.685220-42228 3111    5
 1.400000+7 1.001730-3 1.500000+7 1.548740-3 1.600000+7 1.794560-32228 3111    6
 1.700000+7 1.972850-3 1.800000+7 2.176950-3 1.900000+7 2.766440-32228 3111    7
 2.000000+7 3.207770-3                                            2228 3111    8
                                                                  2228 3  099999
                                                                  2228 0  0    0
 2.204700+4 4.654840+1          0          0          1          12228 8 16    1
 2.204600+4 0.000000+0          3          0          0          02228 8 16    2
                                                                  2228 8  099999
 2.204700+4 4.654840+1          0          0          1          12228 8 22    1
 2.004300+4 0.000000+0          3          0          0          02228 8 22    2
                                                                  2228 8  099999
 2.204700+4 4.654840+1          0          0          1          12228 8 28    1
 2.104600+4 0.000000+0          3          0          0          02228 8 28    2
                                                                  2228 8  099999
 2.204700+4 4.654840+1          0          0          1          12228 8102    1
 2.204800+4 0.000000+0          3          0          0          02228 8102    2
                                                                  2228 8  099999
 2.204700+4 4.654840+1          0          0          1          12228 8103    1
 2.104700+4 0.000000+0          3          0          0          02228 8103    2
                                                                  2228 8  099999
 2.204700+4 4.654840+1          0          0          1          12228 8104    1
 2.104600+4 0.000000+0          3          0          0          02228 8104    2
                                                                  2228 8  099999
 2.204700+4 4.654840+1          0          0          1          12228 8105    1
 2.104500+4 0.000000+0          3          0          0          02228 8105    2
                                                                  2228 8  099999
 2.204700+4 4.654840+1          0          0          1          12228 8106    1
 2.004500+4 0.000000+0          3          0          0          02228 8106    2
                                                                  2228 8  099999
 2.204700+4 4.654840+1          0          0          1          12228 8107    1
 2.004400+4 0.000000+0          3          0          0          02228 8107    2
                                                                  2228 8  099999
 2.204700+4 4.654840+1          0          0          1          12228 8111    1
 2.004600+4 0.000000+0          3          0          0          02228 8111    2
                                                                  2228 8  099999
                                                                  2228 0  0    0
                                                                     0 0  0    0
                                                                    -1 0  0    0
