 JENDL/AD-2017  Na- 23   pointwise at 293.6K                         0         0
 1.102300+4 2.279230+1          2          0          6          11125 1451    1
 0.000000+0 0.000000+0          0          0          0          61125 1451    2
 1.000000+0 2.000000+7          0          0         10          01125 1451    3
 2.936000+2 0.000000+0          1          0         65         151125 1451    4
 11-Na- 23 JAERI      EVAL-AUG00 K.SHIBATA (JAERI)                1125 1451    5
                      DIST-MAR18                       20100312   1125 1451    6
----JENDL/AD-2017     MATERIAL 1125                               1125 1451    7
-----INCIDENT NEUTRON DATA                                        1125 1451    8
------ENDF-6 FORMAT                                               1125 1451    9
                                                                  1125 1451   10
History                                                           1125 1451   11
2010-05 Evaluated for JENDL-4.0/1/.                               1125 1451   12
2018-01 File-making was performed for JENDL Activation File.      1125 1451   13
                                                                  1125 1451   14
MF= 1 General iformation                                          1125 1451   15
  MT=451 Descriptive data and directory                           1125 1451   16
                                                                  1125 1451   17
MF= 2 Resonance parameters                                        1125 1451   18
  MT=151 Resolved and unresolved resonance parameters             1125 1451   19
    Taken from JENDL-4.0.                                         1125 1451   20
                                                                  1125 1451   21
MF= 3 Neutron cross sections                                      1125 1451   22
  MT= 16 (n,2n) cross section                                     1125 1451   23
    Taken from JENDL-4.0.                                         1125 1451   24
                                                                  1125 1451   25
  MT= 22 (n,na) cross section                                     1125 1451   26
    Taken from JENDL-4.0.                                         1125 1451   27
    The cross section was multiplied by 0.85.                     1125 1451   28
                                                                  1125 1451   29
  MT= 28 (n,np) cross section                                     1125 1451   30
    Taken from JENDL-4.0.                                         1125 1451   31
                                                                  1125 1451   32
  MT=102 Capture cross section                                    1125 1451   33
    Taken from JENDL-4.0.                                         1125 1451   34
                                                                  1125 1451   35
  MT=103 (n,p) cross section                                      1125 1451   36
    Taken from JENDL-4.0.                                         1125 1451   37
                                                                  1125 1451   38
  MT=107 (n,a) cross section                                      1125 1451   39
    Taken from JENDL-4.0.                                         1125 1451   40
                                                                  1125 1451   41
MF= 8 Information on decay data                                   1125 1451   42
  MT= 16 (n,2n) reaction                                          1125 1451   43
                                                                  1125 1451   44
  MT= 22 (n,na) reaction                                          1125 1451   45
                                                                  1125 1451   46
  MT= 28 (n,np) reaction                                          1125 1451   47
                                                                  1125 1451   48
  MT=102 Capture reaction                                         1125 1451   49
                                                                  1125 1451   50
  MT=103 (n,p) reaction                                           1125 1451   51
                                                                  1125 1451   52
  MT=107 (n,a) reaction                                           1125 1451   53
                                                                  1125 1451   54
MF= 9 Isomeric branching ratios                                   1125 1451   55
  MT=102 Capture reaction                                         1125 1451   56
    Calculated with CCONE code/2/.                                1125 1451   57
                                                                  1125 1451   58
References                                                        1125 1451   59
 1) K.Shibata et al., J. Nucl. Sci. Technol. 48, 1 (2011).        1125 1451   60
 2) O.Iwamoto, J. Nucl. Sci. Technol., 44, 687 (2007).            1125 1451   61
                                                                  1125 1451   62
 ***************** Program LINEAR (VERSION 2017-1) ***************1125 1451   63
 For All Data Greater than 1.0000E-10 barns in Absolute Value     1125 1451   64
 Data Linearized to Within an Accuracy of .100000000 per-cent     1125 1451   65
 ***************** Program SIGMA1 (VERSION 2017-1) ***************1125 1451   66
 Data Doppler Broadened to 293.600000 Kelvin                      1125 1451   67
 for All Data Greater than 1.0000E-10 barns in Absolute Value     1125 1451   68
 Data Linearized to Within an Accuracy of .100000000 per-cent     1125 1451   69
                                1        451         84          11125 1451   70
                                2        151         27          11125 1451   71
                                3         16          6          11125 1451   72
                                3         22          7          11125 1451   73
                                3         28          8          11125 1451   74
                                3        102        996          11125 1451   75
                                3        103         20          11125 1451   76
                                3        107         10          11125 1451   77
                                8         16          2          11125 1451   78
                                8         22          2          11125 1451   79
                                8         28          2          11125 1451   80
                                8        102          3          11125 1451   81
                                8        103          2          11125 1451   82
                                8        107          2          11125 1451   83
                                9        102         47          11125 1451   84
                                                                  1125 1  099999
                                                                  1125 0  0    0
 1.102300+4 2.279230+1          0          0          1          01125 2151    1
 1.102300+4 1.000000+0          0          0          1          01125 2151    2
 1.000000-5 3.500000+5          1          2          0          01125 2151    3
 1.500000+0 5.200000-1          0          0          3          01125 2151    4
 2.279230+1 0.000000+0          0          0         24          41125 2151    5
-1.000000+5 2.000000+0 1.600300+3 1.600000+3 3.000000-1 0.000000+01125 2151    6
 2.850000+3 1.000000+0 4.113330+2 4.110000+2 3.330000-1 0.000000+01125 2151    7
 2.986500+5 2.000000+0 2.001140+3 2.000000+3 1.140000+0 0.000000+01125 2151    8
 5.375000+5 1.000000+0 3.531060+4 3.530000+4 1.060000+1 0.000000+01125 2151    9
 2.279230+1 0.000000+0          1          0         90         151125 2151   10
 7.617000+3 1.000000+0 1.029600+0 2.960000-2 1.000000+0 0.000000+01125 2151   11
 3.538000+4 3.000000+0 1.337000+0 5.490000-1 7.880000-1 0.000000+01125 2151   12
 5.304000+4 2.000000+0 1.153000+3 1.152000+3 1.000000+0 0.000000+01125 2151   13
 1.138000+5 2.000000+0 3.600000-1 1.440000-1 2.160000-1 0.000000+01125 2151   14
 1.319000+5 2.000000+0 2.670000+0 1.070000+0 1.600000+0 0.000000+01125 2151   15
 1.431000+5 3.000000+0 6.370000+0 5.480000+0 8.900000-1 0.000000+01125 2151   16
 2.002000+5 1.000000+0 5.474000+3 5.470000+3 4.000000+0 0.000000+01125 2151   17
 2.126000+5 0.000000+0 1.600490+4 1.600000+4 4.900000+0 0.000000+01125 2151   18
 2.375000+5 2.000000+0 5.501400+3 5.500000+3 1.400000+0 0.000000+01125 2151   19
 2.430000+5 0.000000+0 1.794610+3 1.790000+3 4.610000+0 0.000000+01125 2151   20
 2.992000+5 1.000000+0 3.026000+2 3.000000+2 2.600000+0 0.000000+01125 2151   21
 3.843000+5 1.000000+0 5.120000+2 5.000000+2 1.200000+1 0.000000+01125 2151   22
 3.938000+5 1.000000+0 2.550120+4 2.550000+4 1.200000+0 0.000000+01125 2151   23
 4.313000+5 0.000000+0 7.611000+3 7.600000+3 1.100000+1 0.000000+01125 2151   24
 5.980000+5 1.000000+0 2.590080+4 2.590000+4 8.000000-1 0.000000+01125 2151   25
 2.279230+1 0.000000+0          2          0          6          11125 2151   26
 4.455000+5 2.000000+0 9.004200+3 9.000000+3 4.200000+0 0.000000+01125 2151   27
                                                                  1125 2  099999
                                                                  1125 0  0    0
 1.102300+4 2.279230+1          0          0          0          01125 3 16    1
-1.241700+7-1.241700+7          0          0          1          91125 3 16    2
          9          2          0          0          0          01125 3 16    3
 1.296180+7 0.000000+0 1.300000+7 7.632500-6 1.400000+7 1.313850-21125 3 16    4
 1.500000+7 4.035500-2 1.600000+7 6.518000-2 1.700000+7 8.704000-21125 3 16    5
 1.800000+7 1.036200-1 1.900000+7 1.145600-1 2.000000+7 1.250700-11125 3 16    6
                                                                  1125 3  099999
 1.102300+4 2.279230+1          0          0          0          01125 3 22    1
-1.046700+7-1.046700+7          0          0          1         111125 3 22    2
         11          2          0          0          0          01125 3 22    3
 1.092620+7 0.000000+0 1.200000+7 2.021215-8 1.300000+7 2.356625-41125 3 22    4
 1.400000+7 7.304815-3 1.450000+7 1.772930-2 1.500000+7 3.286440-21125 3 22    5
 1.600000+7 6.668335-2 1.700000+7 9.725275-2 1.800000+7 1.208428-11125 3 22    6
 1.900000+7 1.380170-1 2.000000+7 1.479170-1                      1125 3 22    7
                                                                  1125 3  099999
 1.102300+4 2.279230+1          0          0          0          01125 3 28    1
-8.792700+6-8.792700+6          0          0          1         131125 3 28    2
         13          2          0          0          0          01125 3 28    3
 9.178480+6 0.000000+0 1.000000+7 5.458790-3 1.100000+7 4.608190-21125 3 28    4
 1.200000+7 1.348640-1 1.300000+7 2.183000-1 1.400000+7 2.874850-11125 3 28    5
 1.450000+7 3.075290-1 1.500000+7 3.083960-1 1.600000+7 3.105580-11125 3 28    6
 1.700000+7 2.996020-1 1.800000+7 2.935870-1 1.900000+7 2.878870-11125 3 28    7
 2.000000+7 2.814900-1                                            1125 3 28    8
                                                                  1125 3  099999
 1.102300+4 2.279230+1          0          0          0          01125 3102    1
 6.959290+6 6.959290+6          0          0          1       29791125 3102    2
       2979          2          0          0          0          01125 3102    3
 1.000000-5 2.672688+1 1.103037-5 2.544797+1 1.216691-5 2.423026+11125 3102    4
 1.342055-5 2.307082+1 1.480336-5 2.196687+1 1.632865-5 2.091573+11125 3102    5
 1.801111-5 1.991490+1 1.986691-5 1.896195+1 2.191394-5 1.805460+11125 3102    6
 2.417189-5 1.719068+1 2.666248-5 1.636809+1 2.940971-5 1.558486+11125 3102    7
 3.243999-5 1.483911+1 3.578251-5 1.412905+1 3.946943-5 1.345296+11125 3102    8
 4.353624-5 1.280922+1 4.802208-5 1.219629+1 5.297013-5 1.161269+11125 3102    9
 5.842801-5 1.105701+1 6.444825-5 1.052792+1 7.108881-5 1.002415+11125 3102   10
 7.841358-5 9.544487+0 8.649308-5 9.087775+0 9.540506-5 8.652917+01125 3102   11
 1.052353-4 8.238867+0 1.160784-4 7.844630+0 1.280388-4 7.469258+01125 3102   12
 1.412315-4 7.111847+0 1.557836-4 6.771539+0 1.718351-4 6.447515+01125 3102   13
 1.895404-4 6.138996+0 2.090701-4 5.845240+0 2.306120-4 5.565540+01125 3102   14
 2.543736-4 5.299224+0 2.805835-4 5.045652+0 3.094939-4 4.804213+01125 3102   15
 3.413832-4 4.574327+0 3.765583-4 4.355442+0 4.153577-4 4.147030+01125 3102   16
 4.581549-4 3.948591+0 5.053618-4 3.759648+0 5.574328-4 3.579745+01125 3102   17
 6.148689-4 3.408451+0 6.782232-4 3.245354+0 7.481052-4 3.090061+01125 3102   18
 8.251877-4 2.942199+0 9.102125-4 2.801413+0 1.003998-3 2.667363+01125 3102   19
 1.107447-3 2.539727+0 1.221555-3 2.418199+0 1.347420-3 2.302486+01125 3102   20
 1.486254-3 2.192311+0 1.639393-3 2.087407+0 1.808311-3 1.987523+01125 3102   21
 1.994634-3 1.892418+0 2.200155-3 1.801865+0 2.426853-3 1.715644+01125 3102   22
 2.676908-3 1.633549+0 2.952729-3 1.555383+0 3.256969-3 1.480957+01125 3102   23
 3.592557-3 1.410092+0 3.962723-3 1.342618+0 4.371030-3 1.278373+01125 3102   24
 4.821407-3 1.217202+0 5.318191-3 1.158958+0 5.866161-3 1.103502+01125 3102   25
 6.470592-3 1.050698+0 7.137302-3 1.000422+0 7.872708-3 9.525515-11125 3102   26
 8.683888-3 9.069716-1 9.578649-3 8.635728-1 1.056560-2 8.222506-11125 3102   27
 1.165425-2 7.829058-1 1.285507-2 7.454437-1 1.417962-2 7.097742-11125 3102   28
 1.564064-2 6.758116-1 1.725221-2 6.434742-1 1.902982-2 6.126843-11125 3102   29
 2.099059-2 5.833680-1 2.315340-2 5.554549-1 2.524188-2 5.319821-11125 3102   30
 2.530000-2 5.313708-1 2.790683-2 5.059480-1 3.078227-2 4.817440-11125 3102   31
 3.395398-2 4.587016-1 3.745250-2 4.367656-1 4.131149-2 4.158829-11125 3102   32
 4.556810-2 3.960021-1 5.026329-2 3.770739-1 5.544227-2 3.590520-11125 3102   33
 6.115487-2 3.418913-1 6.745608-2 3.255471-1 7.440655-2 3.099770-11125 3102   34
 8.207318-2 2.951401-1 9.052975-2 2.810072-1 9.985766-2 2.675520-11125 3102   35
 0.11014669 2.547495-1 0.12149586 2.425722-1 0.13401443 2.309830-11125 3102   36
 0.14782287 2.199389-1 0.16305408 2.094098-1 0.17985468 1.993796-11125 3102   37
 0.19838636 1.898308-1 0.21882748 1.807442-1 0.24137480 1.721059-11125 3102   38
 0.26624532 1.638936-1 0.29367842 1.560615-1 0.32393815 1.485886-11125 3102   39
 0.35731575 1.414719-1 0.39413248 1.346979-1 0.43474269 1.282520-11125 3102   40
 0.47953725 1.221331-1 0.53267855 1.159067-1 0.58756412 1.103585-11125 3102   41
 0.64810494 1.050731-1 0.71488369 1.000427-1 0.78854313 9.525491-21125 3102   42
 0.86979221 9.069851-2 0.95941294 8.638259-2 1.06568076 8.197966-21125 3102   43
 1.17548526 7.805503-2 1.29660368 7.432000-2 1.43020176 7.076533-21125 3102   44
 1.57756539 6.738206-2 1.74011292 6.416197-2 1.91940884 6.109703-21125 3102   45
 2.11717888 5.819516-2 2.35180016 5.522845-2 2.59412248 5.259101-21125 3102   46
 2.86141294 5.007981-2 3.15624420 4.769002-2 3.48145398 4.541642-21125 3102   47
 3.84017238 4.325232-2 4.20618120 4.134740-2 4.67230130 3.924615-21125 3102   48
 5.15372097 3.737988-2 5.68474466 3.560088-2 6.27048341 3.390750-21125 3102   49
 6.91657490 3.229930-2 7.62923768 3.076776-2 8.35638428 2.941759-21125 3102   50
 9.28242110 2.793245-2 10.2388535 2.661480-2 11.2147239 2.544676-21125 3102   51
 12.3702548 2.424325-2 13.6448482 2.310544-2 15.0507717 2.201886-21125 3102   52
 16.6015573 2.098919-2 18.5704823 1.987716-2 20.3414428 1.901582-21125 3102   53
 22.2801962 1.819463-2 24.4049308 1.740766-2 27.1081034 1.654809-21125 3102   54
 29.9012397 1.578451-2 32.9821722 1.506203-2 36.8938188 1.428343-21125 3102   55
 40.6952453 1.363822-2 44.2638757 1.310963-2 48.1454448 1.260406-21125 3102   56
 53.1062046 1.203979-2 58.5781060 1.151109-2 64.6138153 1.100432-21125 3102   57
 71.7741816 1.049463-2 78.0681730 1.011320-2 85.5088910 9.713275-31125 3102   58
 93.6633836 9.335224-3 101.876874 9.003919-3 110.810618 8.689047-31125 3102   59
 122.228206 8.339255-3 135.766615 7.992084-3 148.713899 7.711680-31125 3102   60
 164.036925 7.425106-3 179.671369 7.177968-3 199.582170 6.911090-31125 3102   61
 221.688566 6.667669-3 244.530679 6.459698-3 267.850168 6.282988-31125 3102   62
 293.379106 6.122112-3 328.173521 5.947592-3 356.951575 5.837796-31125 3102   63
 388.253223 5.736580-3 431.278624 5.636568-3 475.716257 5.567958-31125 3102   64
 521.057021 5.527498-3 566.925618 5.510041-3 643.309185 5.535006-31125 3102   65
 709.593801 5.596962-3 777.263692 5.700472-3 850.899144 5.852771-31125 3102   66
 919.077980 6.030643-3 992.670979 6.267059-3 1057.29288 6.513943-31125 3102   67
 1122.40100 6.799929-3 1187.09431 7.131760-3 1246.78311 7.477310-31125 3102   68
 1305.09134 7.864770-3 1361.11177 8.281228-3 1419.53686 8.773979-31125 3102   69
 1459.87362 9.152126-3 1501.35658 9.578097-3 1544.01829 1.005997-21125 3102   70
 1587.89225 1.060755-2 1621.65373 1.106564-2 1666.87639 1.174216-21125 3102   71
 1708.55101 1.243771-2 1749.68450 1.320019-2 1790.81750 1.404913-21125 3102   72
 1831.95100 1.499759-2 1873.08400 1.606120-2 1912.16051 1.719363-21125 3102   73
 1945.06750 1.825642-2 1977.97401 1.943240-2 2010.88051 2.073780-21125 3102   74
 2035.56100 2.180911-2 2068.46700 2.338872-2 2093.14750 2.469740-21125 3102   75
 2117.82700 2.612641-2 2142.50751 2.769063-2 2167.18700 2.940699-21125 3102   76
 2191.86751 3.129538-2 2216.54700 3.337850-2 2241.22750 3.568322-21125 3102   77
 2265.90700 3.824048-2 2290.58700 4.108688-2 2315.26700 4.426522-21125 3102   78
 2339.94700 4.782596-2 2356.40051 5.044127-2 2372.85351 5.327280-21125 3102   79
 2389.30701 5.634358-2 2405.76051 5.967871-2 2422.21351 6.330618-21125 3102   80
 2438.66700 6.725805-2 2453.06401 7.101039-2 2471.57400 7.627852-21125 3102   81
 2490.08401 8.210800-2 2508.59400 8.856458-2 2527.10401 9.572011-21125 3102   82
 2545.61400 1.036582-1 2564.12401 1.124687-1 2582.63400 1.222359-11125 3102   83
 2601.14401 1.330401-1 2619.65400 1.449584-1 2638.16401 1.580457-11125 3102   84
 2656.67351 1.723060-1 2675.18301 1.876804-1 2699.86301 2.096431-11125 3102   85
 2743.05300 2.496785-1 2763.62000 2.675744-1 2779.04526 2.794933-11125 3102   86
 2794.47001 2.894831-1 2804.75300 2.947930-1 2815.03651 2.988496-11125 3102   87
 2828.66201 3.020939-1 2838.68800 3.028400-1 2848.76600 3.021472-11125 3102   88
 2859.66651 2.996838-1 2870.56700 2.957316-1 2882.90701 2.894266-11125 3102   89
 2895.24700 2.814721-1 2907.58676 2.721032-1 2928.15300 2.542048-11125 3102   90
 2955.91801 2.276877-1 2989.85326 1.951752-1 3006.30676 1.802468-11125 3102   91
 3022.76026 1.661630-1 3030.98700 1.594121-1 3047.44000 1.467726-11125 3102   92
 3063.89300 1.351311-1 3080.34650 1.244668-1 3096.80000 1.147353-11125 3102   93
 3113.25301 1.058770-1 3129.70600 9.782613-2 3146.15951 9.051481-21125 3102   94
 3162.61300 8.387571-2 3179.06650 7.784543-2 3195.52000 7.236471-21125 3102   95
 3211.97300 6.737839-2 3228.42600 6.283671-2 3244.87950 5.869466-21125 3102   96
 3261.33300 5.491148-2 3277.78651 5.145108-2 3294.24000 4.828116-21125 3102   97
 3310.69301 4.537258-2 3327.14600 4.269960-2 3343.59951 4.023928-21125 3102   98
 3360.05300 3.797099-2 3376.50650 3.587659-2 3392.96000 3.393986-21125 3102   99
 3409.41300 3.214613-2 3425.86600 3.048241-2 3442.31950 2.893709-21125 3102  100
 3458.77300 2.749961-2 3475.22600 2.616075-2 3499.90576 2.432363-21125 3102  101
 3524.58600 2.265543-2 3549.26626 2.115193-2 3573.94600 1.977974-21125 3102  102
 3598.62576 1.853622-2 3623.30600 1.739592-2 3647.98626 1.635734-21125 3102  103
 3676.77900 1.525022-2 3705.57276 1.424925-2 3730.25300 1.346270-21125 3102  104
 3763.15900 1.250844-2 3789.89600 1.180192-2 3816.63300 1.115130-21125 3102  105
 3842.34100 1.057297-2 3868.04900 1.003662-2 3893.75700 9.538339-31125 3102  106
 3929.74926 8.899265-3 3960.59900 8.397120-3 3991.44876 7.936721-31125 3102  107
 4022.29900 7.515916-3 4042.86600 7.244361-3 4083.99900 6.751171-31125 3102  108
 4125.13200 6.304651-3 4166.26600 5.899215-3 4207.39900 5.530079-31125 3102  109
 4248.53200 5.193123-3 4289.66600 4.884788-3 4330.79900 4.601990-31125 3102  110
 4371.93200 4.342041-3 4413.06500 4.102596-3 4454.19900 3.881597-31125 3102  111
 4495.33200 3.677237-3 4536.46500 3.487920-3 4577.59900 3.312237-31125 3102  112
 4618.73200 3.148936-3 4659.86500 2.996905-3 4700.99900 2.855152-31125 3102  113
 4762.69851 2.660648-3 4824.39800 2.483146-3 4886.09850 2.323320-31125 3102  114
 4947.79800 2.176710-3 5009.49850 2.043930-3 5071.19800 1.921569-31125 3102  115
 5132.89851 1.810172-3 5194.59800 1.707091-3 5235.73100 1.643225-31125 3102  116
 5307.71500 1.539382-3 5379.69800 1.444627-3 5451.68100 1.357989-31125 3102  117
 5523.66500 1.278593-3 5600.78900 1.200686-3 5677.91400 1.129387-31125 3102  118
 5755.03900 1.063990-3 5832.16400 1.003877-3 5909.28900 9.485088-41125 3102  119
 5986.41400 8.974114-4 6063.53900 8.501691-4 6140.66400 8.064244-41125 3102  120
 6227.29772 7.613155-4 6346.33100 7.044575-4 6435.86631 6.659885-41125 3102  121
 6526.66480 6.299854-4 6654.83000 5.834192-4 6748.71767 5.527310-41125 3102  122
 6843.92993 5.240637-4 6940.48546 4.973218-4 7038.40322 4.723218-41125 3102  123
 7123.77200 4.526226-4 7203.99300 4.360396-4 7284.21400 4.219656-41125 3102  124
 7324.32400 4.163941-4 7364.43500 4.124570-4 7397.02500 4.111666-41125 3102  125
 7420.84051 4.121923-4 7444.65600 4.156022-4 7459.69751 4.197536-41125 3102  126
 7474.73900 4.263242-4 7486.01976 4.335076-4 7497.30051 4.434661-41125 3102  127
 7504.82100 4.520809-4 7512.34176 4.629610-4 7519.86251 4.769406-41125 3102  128
 7525.50308 4.900249-4 7531.14363 5.060105-4 7536.62751 5.250918-41125 3102  129
 7541.79801 5.472033-4 7545.24501 5.648541-4 7548.69200 5.854284-41125 3102  130
 7552.13901 6.095503-4 7555.58601 6.380411-4 7558.17127 6.629185-41125 3102  131
 7560.75651 6.914396-4 7563.42013 7.254026-4 7565.30039 7.527099-41125 3102  132
 7567.18064 7.832816-4 7569.06089 8.176742-4 7570.94114 8.565665-41125 3102  133
 7572.82139 9.007849-4 7574.70164 9.513443-4 7576.11183 9.941756-41125 3102  134
 7577.52200 1.041933-3 7578.77538 1.089148-3 7580.02876 1.141536-31125 3102  135
 7581.28214 1.199885-3 7582.53550 1.265145-3 7583.78889 1.338471-31125 3102  136
 7585.04226 1.421277-3 7585.98230 1.490643-3 7586.92232 1.567212-31125 3102  137
 7587.94076 1.659540-3 7588.72426 1.738195-3 7589.50776 1.824452-31125 3102  138
 7590.29126 1.919359-3 7591.07476 2.024164-3 7591.85826 2.140360-31125 3102  139
 7592.64176 2.269751-3 7593.42526 2.414549-3 7594.13032 2.560285-31125 3102  140
 7594.75695 2.704165-3 7595.38358 2.863836-3 7596.01020 3.042072-31125 3102  141
 7596.63683 3.242458-3 7597.10680 3.410082-3 7597.57676 3.595394-31125 3102  142
 7598.04673 3.801731-3 7598.51670 4.033377-3 7598.94754 4.272762-31125 3102  143
 7599.30013 4.491898-3 7599.65273 4.736091-3 7600.00533 5.010155-31125 3102  144
 7600.35792 5.320071-3 7600.71051 5.673207-3 7600.94558 5.937089-31125 3102  145
 7601.18064 6.227388-3 7601.41570 6.547796-3 7601.65076 6.902496-31125 3102  146
 7601.88583 7.296320-3 7602.12088 7.734700-3 7602.35595 8.223871-31125 3102  147
 7602.59100 8.770833-3 7602.77276 9.238414-3 7602.95451 9.749337-31125 3102  148
 7603.13626 1.030810-2 7603.31801 1.091951-2 7603.49976 1.158893-21125 3102  149
 7603.68151 1.232203-2 7603.86326 1.312509-2 7604.04500 1.400476-21125 3102  150
 7604.22676 1.496842-2 7604.40851 1.602372-2 7604.59026 1.717908-21125 3102  151
 7604.77201 1.844331-2 7604.95376 1.982608-2 7605.13551 2.133727-21125 3102  152
 7605.31726 2.298769-2 7605.49900 2.478842-2 7605.70855 2.706676-21125 3102  153
 7605.91808 2.957958-2 7606.12761 3.234702-2 7606.33714 3.538966-21125 3102  154
 7606.54667 3.872924-2 7606.75620 4.238771-2 7606.96574 4.638785-21125 3102  155
 7607.17526 5.075216-2 7607.38480 5.550439-2 7607.59432 6.066673-21125 3102  156
 7607.73400 6.434733-2 7607.95913 7.070134-2 7608.18426 7.759838-21125 3102  157
 7608.40939 8.506380-2 7608.63450 9.311996-2 7608.85964 1.017880-11125 3102  158
 7609.08476 1.110843-1 7609.30988 1.210230-1 7609.53500 1.316131-11125 3102  159
 7609.81495 1.456984-1 7610.09489 1.607953-1 7610.37483 1.768881-11125 3102  160
 7610.65476 1.939441-1 7611.02800 2.180980-1 7611.45289 2.473597-11125 3102  161
 7611.87776 2.781775-1 7612.62450 3.347556-1 7613.49950 4.013439-11125 3102  162
 7614.06226 4.417488-1 7614.51600 4.715700-1 7614.89626 4.939734-11125 3102  163
 7615.22901 5.112342-1 7615.59951 5.275047-1 7615.90851 5.384523-11125 3102  164
 7616.30000 5.486209-1 7616.67551 5.542718-1 7617.00000 5.558144-11125 3102  165
 7617.32450 5.542292-1 7617.70000 5.485307-1 7618.09151 5.383156-11125 3102  166
 7618.40050 5.273348-1 7618.77100 5.110300-1 7619.10376 4.937437-11125 3102  167
 7619.48400 4.713196-1 7619.93776 4.414820-1 7620.44950 4.048514-11125 3102  168
 7621.38876 3.334936-1 7622.04501 2.837089-1 7622.50851 2.499270-11125 3102  169
 7622.81751 2.283827-1 7623.15863 2.056995-1 7623.43858 1.880466-11125 3102  170
 7623.71850 1.713272-1 7623.99845 1.555820-1 7624.27838 1.408393-11125 3102  171
 7624.46500 1.315737-1 7624.69013 1.209952-1 7624.91526 1.110679-11125 3102  172
 7625.14039 1.017815-1 7625.36550 9.312318-2 7625.59064 8.507468-21125 3102  173
 7625.81576 7.761655-2 7626.04088 7.072544-2 7626.26600 6.437694-21125 3102  174
 7626.48323 5.874017-2 7626.70045 5.355946-2 7626.91767 4.880904-21125 3102  175
 7627.13489 4.446359-2 7627.35211 4.049723-2 7627.56933 3.688487-21125 3102  176
 7627.71414 3.466097-2 7627.85895 3.257601-2 7628.00376 3.062316-21125 3102  177
 7628.14858 2.879522-2 7628.29338 2.708575-2 7628.43820 2.548808-21125 3102  178
 7628.58300 2.399605-2 7628.75995 2.230723-2 7628.93688 2.075637-21125 3102  179
 7629.11383 1.933318-2 7629.29076 1.802818-2 7629.46770 1.683212-21125 3102  180
 7629.64464 1.573659-2 7629.82158 1.473346-2 7629.99850 1.381526-21125 3102  181
 7630.17545 1.297481-2 7630.35239 1.220570-2 7630.52933 1.150173-21125 3102  182
 7630.70626 1.085733-2 7630.88320 1.026717-2 7631.06013 9.726506-31125 3102  183
 7631.23707 9.230845-3 7631.41400 8.776144-3 7631.63926 8.250586-31125 3102  184
 7631.86451 7.778368-3 7632.08976 7.353237-3 7632.31501 6.969696-31125 3102  185
 7632.54026 6.622817-3 7632.76551 6.308317-3 7632.99076 6.022365-31125 3102  186
 7633.32864 5.639771-3 7633.66651 5.304373-3 7634.00439 5.008272-31125 3102  187
 7634.34226 4.745035-3 7634.68014 4.509390-3 7635.01800 4.297061-31125 3102  188
 7635.50064 4.027374-3 7635.98326 3.790204-3 7636.46589 3.579502-31125 3102  189
 7636.94851 3.390687-3 7637.43114 3.220231-3 7637.91376 3.065396-31125 3102  190
 7638.55726 2.879559-3 7639.20076 2.713670-3 7639.84426 2.564651-31125 3102  191
 7640.58426 2.411014-3 7641.00251 2.331501-3 7641.83901 2.186251-31125 3102  192
 7642.67551 2.056979-3 7643.51200 1.941321-3 7644.34851 1.837352-31125 3102  193
 7645.18501 1.743494-3 7646.02151 1.658432-3 7647.17976 1.553160-31125 3102  194
 7648.14501 1.474982-3 7649.11027 1.404274-3 7650.07551 1.340095-31125 3102  195
 7651.36251 1.263323-3 7652.64951 1.195197-3 7653.93651 1.134448-31125 3102  196
 7655.22351 1.080036-3 7656.51051 1.031100-3 7658.24801 9.724637-41125 3102  197
 7659.88902 9.237424-4 7661.53001 8.804798-4 7663.17102 8.418682-41125 3102  198
 7664.81201 8.072479-4 7667.00001 7.663737-4 7669.18801 7.306113-41125 3102  199
 7671.37601 6.991444-4 7673.56401 6.713083-4 7676.52413 6.384602-41125 3102  200
 7679.32333 6.116028-4 7682.12251 5.881302-4 7685.85476 5.611906-41125 3102  201
 7689.58701 5.382663-4 7693.31926 5.185335-4 7697.05151 5.014161-41125 3102  202
 7702.64988 4.797134-4 7708.63438 4.606605-4 7714.81195 4.444284-41125 3102  203
 7720.98950 4.309396-4 7729.22626 4.160430-4 7737.46300 4.037771-41125 3102  204
 7746.34326 3.928205-4 7759.66364 3.796408-4 7772.98400 3.692318-41125 3102  205
 7791.71001 3.577479-4 7810.43601 3.488380-4 7822.92000 3.436615-41125 3102  206
 7846.39501 3.354928-4 7869.87000 3.286552-4 7902.61100 3.205768-41125 3102  207
 7955.94401 3.097375-4 8017.72000 2.990292-4 8090.61600 2.880910-41125 3102  208
 8198.72401 2.738371-4 8337.72000 2.575037-4 8492.16000 2.414625-41125 3102  209
 8646.60000 2.268704-4 8819.23800 2.122001-4 8991.87600 1.989260-41125 3102  210
 9164.51300 1.868637-4 9337.15100 1.758638-4 9509.78900 1.658035-41125 3102  211
 9682.42700 1.565785-4 9855.06500 1.480998-4 10027.7000 1.402902-41125 3102  212
 10240.9072 1.315109-4 10372.9800 1.264183-4 10593.5285 1.186510-41125 3102  213
 10793.8577 1.121825-4 11063.5300 1.042418-4 11298.7608 9.805900-51125 3102  214
 11581.4400 9.128869-5 11827.6825 8.601279-5 12078.5679 8.107569-51125 3102  215
 12335.3803 7.649531-5 12597.0348 7.221904-5 12864.8707 6.824735-51125 3102  216
 13135.1800 6.456526-5 13480.4600 6.033463-5 13825.7300 5.654866-51125 3102  217
 14171.0100 5.315111-5 14516.2800 5.009367-5 14861.5600 4.733528-51125 3102  218
 15206.8400 4.484087-5 15552.1100 4.258037-5 15897.3900 4.052785-51125 3102  219
 16242.6600 3.866093-5 16587.9400 3.696016-5 17052.6586 3.491746-51125 3102  220
 17400.3743 3.353335-5 17748.0899 3.226834-5 18095.7955 3.111135-51125 3102  221
 18443.5111 3.005255-5 18922.8432 2.873621-5 19486.6379 2.738390-51125 3102  222
 19973.2869 2.636702-5 20510.0563 2.537557-5 21188.9218 2.431606-51125 3102  223
 21640.4547 2.371235-5 22246.7248 2.301742-5 22995.0230 2.232582-51125 3102  224
 23730.6800 2.180003-5 24349.6014 2.148072-5 25075.7600 2.121525-51125 3102  225
 25884.2194 2.107428-5 26196.6700 2.105477-5 27058.7481 2.112686-51125 3102  226
 27765.9300 2.129897-5 28413.3265 2.156511-5 29111.0200 2.195056-51125 3102  227
 29729.9733 2.240573-5 30431.0952 2.303805-5 31078.1157 2.377452-51125 3102  228
 31516.5720 2.436248-5 31801.1900 2.478076-5 32249.5500 2.555335-51125 3102  229
 32697.9100 2.648505-5 33034.1900 2.734972-5 33258.3700 2.803560-51125 3102  230
 33370.4600 2.840860-5 33594.6400 2.931037-5 33762.7750 3.015099-51125 3102  231
 33874.8651 3.081582-5 33986.9550 3.159905-5 34076.4250 3.232025-51125 3102  232
 34176.7000 3.329266-5 34243.5500 3.406443-5 34310.4000 3.496064-51125 3102  233
 34377.2500 3.601520-5 34460.8126 3.762282-5 34510.9500 3.879425-51125 3102  234
 34561.0876 4.017336-5 34612.8950 4.187559-5 34647.9900 4.320145-51125 3102  235
 34683.0900 4.474139-5 34718.1900 4.651949-5 34753.4201 4.860260-51125 3102  236
 34779.8426 5.040182-5 34806.3976 5.245841-5 34833.0189 5.482028-51125 3102  237
 34859.6400 5.753503-5 34884.7089 6.049318-5 34909.7776 6.393872-51125 3102  238
 34926.4900 6.655542-5 34944.4901 6.971334-5 34962.4901 7.328142-51125 3102  239
 34980.4901 7.733481-5 34993.9901 8.075521-5 35007.0376 8.441846-51125 3102  240
 35019.8589 8.841187-5 35032.6801 9.285452-5 35045.5014 9.781127-51125 3102  241
 35058.3226 1.033640-4 35070.9820 1.095427-4 35083.3176 1.163435-41125 3102  242
 35095.6533 1.240507-4 35103.8770 1.297722-4 35112.1008 1.360270-41125 3102  243
 35120.3245 1.428864-4 35128.5482 1.504339-4 35136.1695 1.581249-41125 3102  244
 35143.1883 1.658777-4 35150.2070 1.743547-4 35157.2258 1.836482-41125 3102  245
 35164.2445 1.938664-4 35171.2633 2.051382-4 35178.2820 2.176163-41125 3102  246
 35185.3007 2.314810-4 35191.3588 2.447260-4 35196.4564 2.569119-41125 3102  247
 35201.5539 2.701675-4 35206.6514 2.846213-4 35211.7489 3.004187-41125 3102  248
 35216.8464 3.177265-4 35221.9439 3.367451-4 35227.0413 3.577205-41125 3102  249
 35231.4495 3.776591-4 35237.0276 4.056282-4 35240.7464 4.261989-41125 3102  250
 35244.4650 4.485110-4 35248.1839 4.727722-4 35251.9026 4.992204-41125 3102  251
 35255.6213 5.281326-4 35259.3400 5.598269-4 35263.9151 6.031917-41125 3102  252
 35266.9651 6.351543-4 35270.0151 6.698890-4 35273.0651 7.077263-41125 3102  253
 35276.1151 7.490484-4 35279.1651 7.942986-4 35282.2151 8.439952-41125 3102  254
 35284.9513 8.928616-4 35287.3739 9.399291-4 35289.7964 9.909951-41125 3102  255
 35292.2189 1.046531-3 35294.6414 1.107084-3 35297.0639 1.173286-31125 3102  256
 35299.4864 1.245873-3 35301.9088 1.325709-3 35304.0813 1.404305-31125 3102  257
 35306.0039 1.480091-3 35307.9264 1.562448-3 35309.8489 1.652176-31125 3102  258
 35311.7714 1.750207-3 35313.6939 1.857626-3 35315.6164 1.975702-31125 3102  259
 35317.5388 2.105938-3 35319.2520 2.233680-3 35320.7558 2.356113-31125 3102  260
 35322.2595 2.489404-3 35323.7633 2.634934-3 35325.2670 2.794323-31125 3102  261
 35326.7708 2.969489-3 35328.2745 3.162720-3 35329.7782 3.376792-31125 3102  262
 35331.1151 3.587369-3 35332.2851 3.789732-3 35333.4551 4.011530-31125 3102  263
 35334.6251 4.255854-3 35335.7951 4.526661-3 35336.9651 4.829136-31125 3102  264
 35337.8426 5.080877-3 35338.7201 5.358135-3 35339.5976 5.665917-31125 3102  265
 35340.3913 5.975925-3 35341.1433 6.302996-3 35341.8951 6.669190-31125 3102  266
 35342.6470 7.083024-3 35343.3989 7.554869-3 35343.9000 7.908107-31125 3102  267
 35344.4014 8.297901-3 35344.9026 8.729606-3 35345.4039 9.209803-31125 3102  268
 35345.9051 9.745831-3 35346.4064 1.034661-2 35346.9076 1.102190-21125 3102  269
 35347.2836 1.158439-2 35347.6595 1.220058-2 35348.0982 1.299620-21125 3102  270
 35348.4745 1.375185-2 35348.8508 1.458307-2 35349.2270 1.549817-21125 3102  271
 35349.6033 1.650639-2 35349.9795 1.761776-2 35350.3558 1.884316-21125 3102  272
 35350.7320 2.019453-2 35351.1083 2.168514-2 35351.4846 2.332920-21125 3102  273
 35351.8608 2.514184-2 35352.2370 2.713964-2 35352.6133 2.934070-21125 3102  274
 35352.9895 3.176431-2 35353.3658 3.443087-2 35353.7420 3.736241-21125 3102  275
 35354.0973 4.039580-2 35354.4317 4.350489-2 35354.7661 4.687895-21125 3102  276
 35355.1005 5.053737-2 35355.4348 5.450086-2 35355.7692 5.879071-21125 3102  277
 35356.1036 6.342855-2 35356.4379 6.843726-2 35356.7723 7.384147-21125 3102  278
 35357.1067 7.966581-2 35357.4411 8.593454-2 35357.7755 9.267338-21125 3102  279
 35358.1098 9.990940-2 35358.4442 1.076694-1 35358.7786 1.159797-11125 3102  280
 35359.1129 1.248673-1 35359.5307 1.368280-1 35359.9067 1.484439-11125 3102  281
 35360.2826 1.609014-1 35360.6586 1.742492-1 35361.0345 1.885115-11125 3102  282
 35361.4105 2.037305-1 35361.7864 2.199351-1 35362.2876 2.431290-11125 3102  283
 35362.7888 2.681980-1 35363.2900 2.951879-1 35363.7076 3.191775-11125 3102  284
 35364.1251 3.445425-1 35364.7514 3.852002-1 35365.3776 4.289684-11125 3102  285
 35366.0039 4.757976-1 35366.6300 5.255629-1 35367.2976 5.816799-11125 3102  286
 35367.9650 6.406690-1 35368.9663 7.337544-1 35370.3051 8.642979-11125 3102  287
 35372.6151 1.092273+0 35373.7150 1.194627+0 35374.6476 1.274550+01125 3102  288
 35375.4500 1.336514+0 35376.1551 1.384661+0 35376.7651 1.420900+01125 3102  289
 35377.4201 1.453659+0 35378.1800 1.483045+0 35378.9800 1.503346+01125 3102  290
 35379.8101 1.512391+0 35380.0000 1.512710+0 35380.7501 1.507586+01125 3102  291
 35381.4151 1.494605+0 35382.0300 1.475726+0 35382.9000 1.438258+01125 3102  292
 35383.6200 1.398372+0 35384.4800 1.341265+0 35385.2501 1.282504+01125 3102  293
 35386.1500 1.206290+0 35387.3501 1.095256+0 35389.4476 8.885330-11125 3102  294
 35390.8601 7.500881-1 35391.7376 6.675486-1 35392.5945 5.908326-11125 3102  295
 35393.3470 5.272806-1 35393.9114 4.822260-1 35394.4758 4.395471-11125 3102  296
 35395.0400 3.993452-1 35395.5001 3.684262-1 35395.9601 3.391996-11125 3102  297
 35396.4201 3.116540-1 35396.8800 2.857843-1 35397.3401 2.615530-11125 3102  298
 35397.8001 2.389374-1 35398.2601 2.178866-1 35398.7200 1.983568-11125 3102  299
 35399.1570 1.811526-1 35399.5939 1.652190-1 35400.0308 1.504927-11125 3102  300
 35400.4676 1.369193-1 35400.9045 1.244345-1 35401.3414 1.129810-11125 3102  301
 35401.7783 1.024955-1 35402.0695 9.601499-2 35402.3608 8.992028-21125 3102  302
 35402.6520 8.419391-2 35402.9433 7.881929-2 35403.2345 7.377937-21125 3102  303
 35403.5629 6.847541-2 35403.9286 6.301724-2 35404.2942 5.800051-21125 3102  304
 35404.6598 5.339529-2 35405.0255 4.917245-2 35405.3911 4.530469-21125 3102  305
 35405.7567 4.176631-2 35406.1223 3.853253-2 35406.4880 3.557942-21125 3102  306
 35406.8536 3.288497-2 35407.2192 3.042882-2 35407.5848 2.819140-21125 3102  307
 35407.9505 2.615425-2 35408.3161 2.430034-2 35408.6817 2.261404-21125 3102  308
 35409.0473 2.108058-2 35409.3443 1.993768-2 35409.6870 1.872446-21125 3102  309
 35410.0297 1.761443-2 35410.3723 1.659910-2 35410.7150 1.566981-21125 3102  310
 35411.0576 1.481938-2 35411.4004 1.403982-2 35411.7430 1.332559-21125 3102  311
 35412.1999 1.246415-2 35412.6567 1.169513-2 35413.1136 1.100721-21125 3102  312
 35413.5705 1.039049-2 35414.0274 9.836297-3 35414.4842 9.336937-31125 3102  313
 35414.9411 8.885621-3 35415.3980 8.476447-3 35415.8548 8.104286-31125 3102  314
 35416.5400 7.605795-3 35417.0888 7.250588-3 35417.6376 6.928711-31125 3102  315
 35418.4608 6.498383-3 35419.2839 6.120204-3 35420.1070 5.784383-31125 3102  316
 35420.9301 5.483446-3 35421.7533 5.211391-3 35422.5764 4.963770-31125 3102  317
 35423.6739 4.665406-3 35424.7713 4.397492-3 35426.0513 4.116971-31125 3102  318
 35427.1483 3.899719-3 35428.2451 3.700830-3 35429.7076 3.460251-31125 3102  319
 35431.1701 3.243944-3 35432.6326 3.048461-3 35434.0951 2.871066-31125 3102  320
 35435.5576 2.709461-3 35437.0200 2.561759-3 35438.6651 2.410215-31125 3102  321
 35440.3101 2.272291-3 35441.9551 2.146344-3 35443.6001 2.030998-31125 3102  322
 35445.2451 1.925054-3 35446.8901 1.827507-3 35449.3576 1.695016-31125 3102  323
 35451.2770 1.602036-3 35453.4708 1.505174-3 35455.6645 1.417159-31125 3102  324
 35457.8583 1.336926-3 35460.0520 1.263568-3 35462.2458 1.196308-31125 3102  325
 35464.4395 1.134476-3 35466.6332 1.077495-3 35469.1926 1.016479-31125 3102  326
 35472.1176 9.531199-4 35475.0426 8.957320-4 35477.9676 8.435836-41125 3102  327
 35480.8926 7.960520-4 35483.8176 7.526056-4 35486.7426 7.127876-41125 3102  328
 35489.6676 6.762027-4 35492.9582 6.384836-4 35496.6145 6.003541-41125 3102  329
 35500.2708 5.657301-4 35503.9270 5.341927-4 35507.5833 5.053834-41125 3102  330
 35511.2395 4.789954-4 35514.8958 4.547642-4 35518.5520 4.324613-41125 3102  331
 35522.7563 4.089420-4 35527.5089 3.847858-4 35532.2614 3.628984-41125 3102  332
 35537.0139 3.429997-4 35541.7664 3.248474-4 35546.5189 3.082362-41125 3102  333
 35551.2714 2.929952-4 35556.0238 2.789801-4 35561.6907 2.636970-41125 3102  334
 35568.2720 2.476676-4 35574.8533 2.332507-4 35581.4345 2.202368-41125 3102  335
 35588.0158 2.084494-4 35594.5970 1.977389-4 35601.1783 1.879782-41125 3102  336
 35607.7595 1.790581-4 35615.4370 1.695900-4 35624.2108 1.598526-41125 3102  337
 35632.9845 1.511182-4 35641.7583 1.432552-4 35650.5320 1.361581-41125 3102  338
 35659.3058 1.297357-4 35668.0795 1.238910-4 35681.2400 1.160490-41125 3102  339
 35694.4026 1.091728-4 35707.5651 1.031159-4 35720.7276 9.775363-51125 3102  340
 35733.8901 9.298424-5 35747.0526 8.872391-5 35760.2151 8.490320-51125 3102  341
 35777.7651 8.039387-5 35795.3151 7.645135-5 35812.8651 7.298546-51125 3102  342
 35830.4151 6.992415-5 35847.9651 6.722450-5 35874.2901 6.369477-51125 3102  343
 35900.6138 6.068924-5 35926.9351 5.811885-5 35953.2563 5.590472-51125 3102  344
 35979.5801 5.398626-5 36014.6801 5.180651-5 36049.7801 4.997777-51125 3102  345
 36084.8801 4.843160-5 36125.8301 4.694393-5 36149.2300 4.617648-51125 3102  346
 36196.0300 4.488207-5 36242.8250 4.381712-5 36313.0201 4.255972-51125 3102  347
 36383.2200 4.159374-5 36453.4151 4.088418-5 36523.6100 4.031120-51125 3102  348
 36617.2100 3.977552-5 36710.8100 3.941965-5 36851.2000 3.913851-51125 3102  349
 36970.0600 3.905462-5 37240.3001 3.927098-5 37474.5000 3.973177-51125 3102  350
 37762.7500 4.055400-5 38051.0000 4.157527-5 38339.2500 4.275758-51125 3102  351
 38771.6251 4.480845-5 39204.0000 4.712708-5 39636.3751 4.977749-51125 3102  352
 40068.7500 5.271749-5 40357.0000 5.488229-5 40645.2500 5.721641-51125 3102  353
 40933.5000 5.973421-5 41221.7500 6.245232-5 41510.0000 6.538982-51125 3102  354
 41798.2500 6.856856-5 42086.5000 7.201346-5 42374.7500 7.575308-51125 3102  355
 42663.0000 7.982010-5 42951.2500 8.425203-5 43239.5000 8.909212-51125 3102  356
 43527.7500 9.439026-5 43816.0000 1.002033-4 44032.1900 1.049415-41125 3102  357
 44248.3800 1.100411-4 44464.5600 1.155379-4 44680.7500 1.214734-41125 3102  358
 44896.9400 1.278946-4 45113.1300 1.348553-4 45329.3100 1.424165-41125 3102  359
 45545.5000 1.506478-4 45747.2800 1.590064-4 45949.0500 1.680949-41125 3102  360
 46150.8300 1.779993-4 46352.6000 1.888206-4 46583.2000 2.024572-41125 3102  361
 46813.8000 2.176323-4 46986.7501 2.302149-4 47159.7000 2.438397-41125 3102  362
 47332.6500 2.588270-4 47505.6000 2.751216-4 47678.5500 2.931489-41125 3102  363
 47851.5000 3.128507-4 48024.4500 3.347892-4 48197.4000 3.589075-41125 3102  364
 48312.7000 3.765350-4 48428.0000 3.954894-4 48543.3000 4.159062-41125 3102  365
 48658.6000 4.379381-4 48773.9000 4.617585-4 48889.2000 4.875644-41125 3102  366
 49004.5000 5.155801-4 49119.8000 5.460629-4 49235.1000 5.793077-41125 3102  367
 49350.4000 6.156549-4 49465.7000 6.554982-4 49581.0000 6.992949-41125 3102  368
 49696.3000 7.475794-4 49811.6000 8.009780-4 49955.7251 8.760193-41125 3102  369
 50042.2000 9.260833-4 50150.2976 9.952039-4 50222.3601 1.045427-31125 3102  370
 50294.4201 1.099485-3 50367.9250 1.159031-3 50442.8700 1.224721-31125 3102  371
 50480.3400 1.259275-3 50572.5800 1.351724-3 50664.8200 1.454354-31125 3102  372
 50751.2951 1.561586-3 50826.2401 1.663615-3 50895.4201 1.767245-31125 3102  373
 50964.6000 1.880258-3 51033.7801 2.004518-3 51102.9601 2.140694-31125 3102  374
 51172.1401 2.291238-3 51241.3200 2.457105-3 51310.5001 2.641573-31125 3102  375
 51379.6801 2.846019-3 51425.8000 2.995470-3 51471.9201 3.156467-31125 3102  376
 51518.0400 3.330165-3 51564.1600 3.517862-3 51610.2800 3.721013-31125 3102  377
 51656.4000 3.941255-3 51702.5200 4.180425-3 51748.6401 4.440592-31125 3102  378
 51794.7600 4.724087-3 51840.8800 5.033538-3 51887.0000 5.371900-31125 3102  379
 51933.1200 5.742508-3 51979.2400 6.149103-3 52025.3601 6.595887-31125 3102  380
 52071.4800 7.087552-3 52117.6001 7.629317-3 52163.7200 8.226937-31125 3102  381
 52209.8400 8.886694-3 52255.9600 9.615335-3 52302.0800 1.041799-21125 3102  382
 52336.6701 1.107404-2 52371.2601 1.178823-2 52394.3201 1.228566-21125 3102  383
 52440.4400 1.335977-2 52486.5601 1.453444-2 52532.6800 1.581107-21125 3102  384
 52578.8000 1.718651-2 52624.9200 1.865095-2 52717.1600 2.175952-21125 3102  385
 52794.9876 2.437488-2 52820.9300 2.519916-2 52867.0500 2.653755-21125 3102  386
 52901.6401 2.739767-2 52936.2301 2.809252-2 52970.8201 2.859743-21125 3102  387
 53005.4100 2.889001-2 53030.7800 2.896607-2 53064.5039 2.886789-21125 3102  388
 53098.2276 2.856224-2 53132.2401 2.805105-2 53166.8300 2.734614-21125 3102  389
 53201.4201 2.648241-2 53259.0701 2.477689-2 53331.1326 2.239252-21125 3102  390
 53432.0201 1.899682-2 53478.1401 1.752559-2 53524.2601 1.613938-21125 3102  391
 53547.3201 1.547859-2 53593.4400 1.423881-2 53639.5601 1.310001-21125 3102  392
 53685.6800 1.205974-2 53731.8000 1.111311-2 53777.9200 1.025376-21125 3102  393
 53824.0401 9.474747-3 53870.1600 8.768950-3 53916.2801 8.129453-31125 3102  394
 53962.4000 7.549717-3 54008.5200 7.023689-3 54054.6400 6.545836-31125 3102  395
 54100.7600 6.111156-3 54146.8800 5.715152-3 54193.0001 5.353807-31125 3102  396
 54239.1200 5.023535-3 54285.2401 4.721152-3 54331.3600 4.443824-31125 3102  397
 54377.4800 4.189039-3 54423.6000 3.954562-3 54469.7201 3.738410-31125 3102  398
 54515.8400 3.538820-3 54561.9601 3.354221-3 54608.0800 3.183214-31125 3102  399
 54654.2000 3.024553-3 54723.3801 2.807622-3 54792.5600 2.612066-31125 3102  400
 54861.7401 2.436304-3 54930.9201 2.276908-3 55000.1001 2.132771-31125 3102  401
 55069.2800 2.001339-3 55138.4601 1.881828-3 55207.6401 1.772307-31125 3102  402
 55279.7026 1.668223-3 55357.5300 1.565549-3 55432.4751 1.475866-31125 3102  403
 55507.4200 1.392837-3 55599.6600 1.300171-3 55674.6050 1.231492-31125 3102  404
 55749.5500 1.168126-3 55821.6151 1.111693-3 55893.6800 1.059263-31125 3102  405
 56001.7701 9.875104-4 56095.4500 9.314567-4 56153.1000 8.984048-41125 3102  406
 56268.4000 8.384463-4 56383.7000 7.843265-4 56499.0000 7.353158-41125 3102  407
 56614.3000 6.907942-4 56729.6000 6.502325-4 56844.9000 6.131766-41125 3102  408
 56960.2000 5.792356-4 57075.5000 5.480709-4 57190.8000 5.193888-41125 3102  409
 57306.1000 4.929333-4 57421.4000 4.684800-4 57536.7000 4.458326-41125 3102  410
 57652.0000 4.248176-4 57767.3000 4.052821-4 57940.2501 3.785607-41125 3102  411
 58113.2000 3.542710-4 58286.1500 3.324565-4 58459.1000 3.125052-41125 3102  412
 58632.0500 2.944661-4 58805.0000 2.778783-4 58977.9500 2.627909-41125 3102  413
 59150.9000 2.490773-4 59266.2000 2.402302-4 59496.8000 2.242915-41125 3102  414
 59727.4000 2.099410-4 59929.1800 1.985264-4 60130.9500 1.880564-41125 3102  415
 60332.7300 1.784277-4 60534.5000 1.695530-4 60750.6900 1.607932-41125 3102  416
 60966.8800 1.527273-4 61183.0600 1.452841-4 61399.2500 1.384009-41125 3102  417
 61615.4400 1.320228-4 61831.6300 1.261013-4 62155.9051 1.180202-41125 3102  418
 62408.1251 1.122979-4 62552.2500 1.091498-4 62840.5000 1.033746-41125 3102  419
 63128.7500 9.807892-5 63417.0000 9.321090-5 63705.2500 8.872554-51125 3102  420
 63993.5000 8.458360-5 64281.7500 8.075074-5 64570.0000 7.719683-51125 3102  421
 64858.2500 7.389532-5 65290.6251 6.938729-5 65723.0000 6.528380-51125 3102  422
 66155.3751 6.160847-5 66587.7500 5.824219-5 67020.1251 5.520586-51125 3102  423
 67452.5000 5.241057-5 68029.0000 4.906211-5 68605.5000 4.607201-51125 3102  424
 69182.0000 4.339155-5 69758.5000 4.097939-5 70335.0000 3.880092-51125 3102  425
 70911.5000 3.682693-5 71488.0000 3.503271-5 72064.5000 3.339717-51125 3102  426
 72641.0000 3.190225-5 73217.5000 3.053243-5 73794.0000 2.927426-51125 3102  427
 74370.5000 2.811610-5 75235.2501 2.655343-5 76100.0000 2.514625-51125 3102  428
 76964.7501 2.390399-5 77829.5000 2.277784-5 78406.0000 2.209526-51125 3102  429
 79512.1675 2.091280-5 80633.9411 1.985848-5 81771.5409 1.891631-51125 3102  430
 82925.1901 1.807315-5 84095.1153 1.731771-5 85281.5460 1.664031-51125 3102  431
 86477.0000 1.603683-5 87630.0000 1.552129-5 88783.0000 1.506246-51125 3102  432
 89936.0000 1.465397-5 91665.5001 1.412855-5 93395.0000 1.368010-51125 3102  433
 95124.5001 1.331380-5 96854.0000 1.300522-5 99160.0000 1.268553-51125 3102  434
 101466.000 1.245256-5 103772.000 1.229563-5 106078.000 1.220691-51125 3102  435
 108384.000 1.218131-5 110690.000 1.221972-5 112131.250 1.230180-51125 3102  436
 112707.800 1.238096-5 113045.076 1.250952-5 113192.300 1.263291-51125 3102  437
 113302.701 1.280117-5 113370.151 1.297322-5 113431.451 1.321563-51125 3102  438
 113462.100 1.338639-5 113492.776 1.361498-5 113523.451 1.392468-51125 3102  439
 113546.458 1.423432-5 113569.463 1.463883-5 113584.800 1.498642-51125 3102  440
 113600.889 1.544465-5 113611.614 1.581916-5 113622.339 1.626502-51125 3102  441
 113633.064 1.680208-5 113643.789 1.745848-5 113651.833 1.805237-51125 3102  442
 113659.876 1.875774-5 113667.920 1.960459-5 113673.095 2.024262-51125 3102  443
 113678.083 2.094203-5 113683.070 2.174055-5 113688.058 2.265854-51125 3102  444
 113693.045 2.372221-5 113696.786 2.463574-5 113700.526 2.566798-51125 3102  445
 113704.267 2.684290-5 113708.007 2.818946-5 113710.500 2.920227-51125 3102  446
 113713.763 3.069975-5 113716.211 3.198146-5 113718.658 3.343954-51125 3102  447
 113721.105 3.513540-5 113722.736 3.644529-5 113724.367 3.795105-51125 3102  448
 113725.999 3.971964-5 113727.222 4.127507-5 113728.445 4.308634-51125 3102  449
 113729.669 4.522898-5 113730.485 4.688684-5 113731.300 4.876966-51125 3102  450
 113732.116 5.091828-5 113732.931 5.338253-5 113733.747 5.622284-51125 3102  451
 113734.359 5.864337-5 113734.970 6.134216-5 113735.582 6.437310-51125 3102  452
 113736.193 6.776338-5 113736.840 7.180660-5 113737.319 7.513601-51125 3102  453
 113737.797 7.878369-5 113738.275 8.278142-5 113738.753 8.716747-51125 3102  454
 113739.232 9.198066-5 113739.710 9.725902-5 113740.188 1.030475-41125 3102  455
 113740.666 1.094026-4 113741.144 1.163797-4 113741.622 1.240292-41125 3102  456
 113742.100 1.324137-4 113742.579 1.416083-4 113743.057 1.516881-41125 3102  457
 113743.535 1.627252-4 113744.012 1.748048-4 113744.490 1.880375-41125 3102  458
 113744.969 2.025269-4 113745.447 2.183621-4 113745.925 2.356573-41125 3102  459
 113746.404 2.545501-4 113746.882 2.751752-4 113747.360 2.976584-41125 3102  460
 113747.838 3.221490-4 113748.316 3.488387-4 113748.794 3.779051-41125 3102  461
 113749.272 4.094987-4 113749.750 4.438111-4 113750.228 4.810755-41125 3102  462
 113750.706 5.215141-4 113751.184 5.653260-4 113751.662 6.127510-41125 3102  463
 113752.068 6.561394-4 113752.570 7.138345-4 113753.072 7.765013-41125 3102  464
 113753.573 8.442987-4 113754.075 9.177369-4 113754.576 9.969019-41125 3102  465
 113755.079 1.082833-3 113755.580 1.175292-3 113756.082 1.275035-31125 3102  466
 113756.583 1.382282-3 113757.084 1.497821-3 113757.586 1.621935-31125 3102  467
 113758.088 1.755349-3 113758.589 1.897981-3 113759.091 2.051339-31125 3102  468
 113759.592 2.214948-3 113760.094 2.390012-3 113760.595 2.576779-31125 3102  469
 113761.097 2.776264-3 113761.598 2.988460-3 113762.267 3.292639-31125 3102  470
 113762.842 3.574778-3 113763.563 3.957159-3 113764.286 4.373083-31125 3102  471
 113765.008 4.823475-3 113765.730 5.310760-3 113766.451 5.835283-31125 3102  472
 113767.174 6.401612-3 113767.895 7.008271-3 113768.617 7.658154-31125 3102  473
 113769.338 8.351485-3 113770.060 9.090813-3 113770.682 9.764628-31125 3102  474
 113771.445 1.063877-2 113772.208 1.156547-2 113772.970 1.254493-21125 3102  475
 113773.733 1.357753-2 113774.876 1.522373-2 113776.020 1.698557-21125 3102  476
 113777.264 1.902509-2 113778.701 2.152644-2 113780.426 2.470678-21125 3102  477
 113782.750 2.920877-2 113786.976 3.751873-2 113789.050 4.135795-21125 3102  478
 113790.751 4.423654-2 113792.100 4.628851-2 113793.301 4.790643-21125 3102  479
 113794.351 4.913919-2 113795.500 5.027628-2 113796.800 5.127199-21125 3102  480
 113798.101 5.194277-2 113799.500 5.228562-2 113800.000 5.231116-21125 3102  481
 113801.351 5.212417-2 113802.701 5.156801-2 113804.151 5.057314-21125 3102  482
 113805.201 4.960884-2 113806.500 4.815127-2 113808.101 4.599604-21125 3102  483
 113809.551 4.374548-2 113811.200 4.090841-2 113813.301 3.698554-21125 3102  484
 113818.651 2.647107-2 113820.226 2.348475-2 113821.800 2.063870-21125 3102  485
 113823.201 1.824976-2 113824.251 1.655910-2 113825.301 1.496271-21125 3102  486
 113826.351 1.346288-2 113827.400 1.206459-2 113828.201 1.106427-21125 3102  487
 113829.001 1.012352-2 113829.801 9.240002-3 113830.601 8.414448-31125 3102  488
 113831.401 7.643346-3 113832.201 6.927392-3 113833.001 6.263445-31125 3102  489
 113833.601 5.798750-3 113834.110 5.425944-3 113834.730 4.998657-31125 3102  490
 113835.348 4.598937-3 113835.967 4.225661-3 113836.586 3.877481-31125 3102  491
 113837.205 3.553284-3 113837.824 3.252123-3 113838.442 2.972835-31125 3102  492
 113839.061 2.714040-3 113839.680 2.474652-3 113840.299 2.253792-31125 3102  493
 113840.917 2.050358-3 113841.381 1.908470-3 113841.845 1.775421-31125 3102  494
 113842.310 1.650475-3 113842.773 1.533624-3 113843.237 1.424176-31125 3102  495
 113843.700 1.322159-3 113844.135 1.232274-3 113844.570 1.148202-31125 3102  496
 113845.004 1.069356-3 113845.438 9.957170-4 113845.874 9.266395-41125 3102  497
 113846.308 8.622254-4 113846.742 8.019947-4 113847.176 7.459096-41125 3102  498
 113847.611 6.934089-4 113848.045 6.445979-4 113848.480 5.990910-41125 3102  499
 113848.914 5.568392-4 113849.349 5.174341-4 113849.783 4.809000-41125 3102  500
 113850.217 4.469321-4 113850.651 4.154787-4 113851.086 3.861857-41125 3102  501
 113851.520 3.591002-4 113851.955 3.339840-4 113852.389 3.107875-41125 3102  502
 113852.824 2.892660-4 113853.258 2.694139-4 113853.692 2.510478-41125 3102  503
 113854.126 2.341237-4 113854.561 2.184429-4 113854.995 2.040097-41125 3102  504
 113855.430 1.906848-4 113855.863 1.784306-4 113856.298 1.671075-41125 3102  505
 113856.732 1.567033-4 113857.167 1.471135-4 113857.600 1.383074-41125 3102  506
 113858.035 1.301741-4 113858.469 1.227189-4 113858.903 1.158565-41125 3102  507
 113859.336 1.095570-4 113859.770 1.037550-4 113860.203 9.842567-51125 3102  508
 113860.782 9.198003-5 113861.360 8.622059-5 113861.938 8.107308-51125 3102  509
 113862.516 7.646645-5 113863.094 7.234207-5 113863.672 6.865059-51125 3102  510
 113864.250 6.534362-5 113864.829 6.237607-5 113865.407 5.970988-51125 3102  511
 113865.985 5.731254-5 113866.851 5.415653-5 113867.719 5.143725-51125 3102  512
 113868.586 4.909434-5 113869.454 4.705982-5 113870.320 4.528445-51125 3102  513
 113871.476 4.324447-5 113872.633 4.150288-5 113873.788 3.999965-51125 3102  514
 113874.945 3.868354-5 113876.100 3.751831-5 113877.763 3.604636-51125 3102  515
 113879.426 3.476249-5 113881.920 3.309490-5 113884.414 3.165723-51125 3102  516
 113886.076 3.079702-5 113889.401 2.926250-5 113892.726 2.792768-51125 3102  517
 113896.051 2.675434-5 113899.376 2.571440-5 113904.270 2.438410-51125 3102  518
 113908.976 2.328905-5 113913.683 2.234059-5 113918.389 2.151331-51125 3102  519
 113924.664 2.056423-5 113930.939 1.975790-5 113937.214 1.906649-51125 3102  520
 113943.489 1.846879-5 113952.900 1.771300-5 113960.220 1.721901-51125 3102  521
 113971.198 1.659853-5 113982.176 1.609128-5 113993.155 1.567059-51125 3102  522
 114004.133 1.531758-5 114018.770 1.492896-5 114033.408 1.461236-51125 3102  523
 114055.363 1.423645-5 114079.126 1.392835-5 114106.501 1.366280-51125 3102  524
 114143.000 1.339909-5 114179.501 1.321320-5 114236.976 1.300434-51125 3102  525
 114299.901 1.285517-5 114383.800 1.272900-5 114551.651 1.259900-51125 3102  526
 114831.400 1.251410-5 115279.100 1.248596-5 116498.886 1.254885-51125 3102  527
 118415.819 1.271657-5 120927.621 1.300855-5 122590.200 1.324982-51125 3102  528
 124250.200 1.353448-5 125910.100 1.388109-5 126740.100 1.409176-51125 3102  529
 127570.100 1.434658-5 128400.000 1.468259-5 128815.000 1.490768-51125 3102  530
 129230.000 1.520302-5 129497.000 1.545348-5 129830.750 1.588040-51125 3102  531
 130031.000 1.622920-5 130164.500 1.652489-5 130298.000 1.688880-51125 3102  532
 130438.176 1.737726-5 130531.626 1.778254-5 130625.076 1.827555-51125 3102  533
 130707.251 1.879124-5 130778.151 1.933751-5 130852.101 2.002599-51125 3102  534
 130909.851 2.067256-5 130967.600 2.143953-5 131023.589 2.232435-51125 3102  535
 131060.914 2.301464-5 131098.238 2.381077-5 131132.813 2.464850-51125 3102  536
 131164.639 2.551663-5 131196.464 2.650838-5 131228.288 2.765074-51125 3102  537
 131259.426 2.893984-5 131289.876 3.038908-5 131312.714 3.161963-51125 3102  538
 131335.551 3.300470-5 131358.388 3.457299-5 131382.188 3.643386-51125 3102  539
 131406.470 3.861817-5 131422.658 4.026398-5 131438.845 4.208683-51125 3102  540
 131455.033 4.411337-5 131471.220 4.637545-5 131487.407 4.891033-51125 3102  541
 131502.007 5.146789-5 131515.020 5.399831-5 131528.033 5.680086-51125 3102  542
 131541.045 5.991627-5 131554.058 6.339342-5 131567.070 6.729115-51125 3102  543
 131580.083 7.167952-5 131589.842 7.534306-5 131599.600 7.937237-51125 3102  544
 131608.201 8.326793-5 131616.801 8.752689-5 131625.401 9.219613-51125 3102  545
 131634.000 9.733013-5 131642.601 1.029968-4 131651.201 1.092730-41125 3102  546
 131659.801 1.162519-4 131668.400 1.240417-4 131674.651 1.302879-41125 3102  547
 131680.901 1.370907-4 131687.151 1.445200-4 131693.400 1.526530-41125 3102  548
 131699.651 1.615842-4 131705.901 1.714179-4 131712.151 1.822828-41125 3102  549
 131718.400 1.943268-4 131723.076 2.042177-4 131727.751 2.149563-41125 3102  550
 131732.426 2.266484-4 131737.101 2.394088-4 131741.776 2.533808-41125 3102  551
 131746.451 2.687180-4 131751.126 2.856122-4 131755.800 3.042788-41125 3102  552
 131760.808 3.265467-4 131765.814 3.515366-4 131769.150 3.699406-41125 3102  553
 131772.489 3.899415-4 131775.826 4.117200-4 131779.163 4.355106-41125 3102  554
 131782.500 4.615653-4 131785.513 4.873032-4 131788.526 5.154019-41125 3102  555
 131791.539 5.461878-4 131794.551 5.800141-4 131797.564 6.173469-41125 3102  556
 131800.576 6.586890-4 131803.588 7.047089-4 131805.848 7.427681-41125 3102  557
 131807.763 7.777558-4 131810.089 8.240519-4 131812.414 8.751801-41125 3102  558
 131814.739 9.320095-4 131817.064 9.956982-4 131818.808 1.048895-31125 3102  559
 131820.551 1.107631-3 131822.295 1.173145-3 131824.038 1.246776-31125 3102  560
 131825.660 1.324307-3 131827.038 1.398540-3 131828.417 1.482153-31125 3102  561
 131829.795 1.577021-3 131830.714 1.647707-3 131831.633 1.725395-31125 3102  562
 131832.551 1.810949-3 131833.470 1.905774-3 131834.389 2.010934-31125 3102  563
 131835.308 2.128113-3 131836.226 2.258849-3 131837.145 2.405456-31125 3102  564
 131838.063 2.569848-3 131838.753 2.706679-3 131839.442 2.855950-31125 3102  565
 131840.276 3.055854-3 131841.026 3.255428-3 131841.777 3.475828-31125 3102  566
 131842.527 3.719329-3 131843.277 3.988564-3 131844.027 4.286297-31125 3102  567
 131844.777 4.615370-3 131845.526 4.979005-3 131846.276 5.381009-31125 3102  568
 131847.027 5.825251-3 131847.777 6.315521-3 131848.340 6.716310-31125 3102  569
 131848.901 7.146364-3 131849.464 7.610866-3 131850.027 8.108841-31125 3102  570
 131850.589 8.644138-3 131851.151 9.218040-3 131851.714 9.834580-31125 3102  571
 131852.488 1.075735-2 131853.076 1.151747-2 131853.664 1.233417-21125 3102  572
 131854.251 1.320866-2 131854.839 1.414780-2 131855.426 1.515160-21125 3102  573
 131856.014 1.622620-2 131856.601 1.737252-2 131857.189 1.859965-21125 3102  574
 131857.776 1.990612-2 131858.364 2.129913-2 131858.951 2.277900-21125 3102  575
 131859.539 2.435548-2 131860.420 2.690218-2 131861.300 2.967668-21125 3102  576
 131861.986 3.200861-2 131862.670 3.449002-2 131863.355 3.713326-21125 3102  577
 131864.267 4.091594-2 131864.951 4.394832-2 131865.864 4.827925-21125 3102  578
 131866.776 5.293205-2 131867.688 5.792276-2 131868.600 6.324959-21125 3102  579
 131869.726 7.030879-2 131870.851 7.788836-2 131871.976 8.599667-21125 3102  580
 131873.101 9.461457-2 131874.226 1.037349-1 131875.539 1.149680-11125 3102  581
 131877.101 1.290803-1 131878.976 1.469274-1 131882.101 1.780681-11125 3102  582
 131885.926 2.162581-1 131888.000 2.357423-1 131889.851 2.516925-11125 3102  583
 131891.500 2.643853-1 131893.200 2.756284-1 131894.600 2.832756-11125 3102  584
 131896.201 2.900410-1 131897.750 2.944340-1 131899.051 2.964033-11125 3102  585
 131900.000 2.968309-1 131901.400 2.958967-1 131902.700 2.933751-11125 3102  586
 131903.900 2.896680-1 131905.500 2.827655-1 131906.900 2.750054-11125 3102  587
 131908.326 2.656076-1 131909.851 2.540853-1 131911.576 2.395082-11125 3102  588
 131913.600 2.208037-1 131916.076 1.964374-1 131920.401 1.530148-11125 3102  589
 131922.176 1.358510-1 131924.089 1.182550-1 131925.682 1.044945-11125 3102  590
 131926.751 9.578500-2 131927.876 8.709393-2 131929.000 7.892716-21125 3102  591
 131930.126 7.127216-2 131931.251 6.415655-2 131932.254 5.825272-21125 3102  592
 131933.267 5.271038-2 131934.026 4.883163-2 131934.786 4.517061-21125 3102  593
 131935.545 4.173799-2 131936.304 3.851756-2 131937.064 3.550630-21125 3102  594
 131937.823 3.269233-2 131938.583 3.007326-2 131939.342 2.763678-21125 3102  595
 131940.100 2.538005-2 131940.973 2.298549-2 131941.555 2.150701-21125 3102  596
 131942.136 2.011715-2 131942.717 1.881112-2 131943.299 1.758513-21125 3102  597
 131943.880 1.643619-2 131944.461 1.536046-2 131945.042 1.435328-21125 3102  598
 131945.624 1.341118-2 131946.205 1.253162-2 131946.786 1.171113-21125 3102  599
 131947.367 1.094590-2 131947.948 1.023279-2 131948.530 9.569203-31125 3102  600
 131949.110 8.952134-3 131949.776 8.298176-3 131950.339 7.786372-31125 3102  601
 131950.901 7.311374-3 131951.465 6.868133-3 131952.027 6.457218-31125 3102  602
 131952.777 5.953848-3 131953.527 5.497712-3 131954.277 5.084831-31125 3102  603
 131955.026 4.711271-3 131955.776 4.373154-3 131956.527 4.067193-31125 3102  604
 131957.277 3.790559-3 131958.027 3.540409-3 131958.777 3.314037-31125 3102  605
 131959.527 3.109102-3 131960.276 2.923555-3 131961.026 2.755430-31125 3102  606
 131961.901 2.578775-3 131962.652 2.442227-3 131963.401 2.318266-31125 3102  607
 131964.152 2.205059-3 131964.902 2.101968-3 131965.902 1.978034-31125 3102  608
 131966.902 1.867676-3 131967.902 1.769065-3 131968.901 1.680587-31125 3102  609
 131969.901 1.600816-3 131970.902 1.528580-3 131972.401 1.432281-31125 3102  610
 131973.902 1.347924-3 131975.401 1.273362-3 131976.901 1.206788-31125 3102  611
 131978.570 1.140507-3 131980.323 1.078135-3 131982.076 1.021999-31125 3102  612
 131983.830 9.709874-4 131985.583 9.244230-4 131987.920 8.681303-41125 3102  613
 131990.258 8.174666-4 131992.595 7.715864-4 131994.932 7.298228-41125 3102  614
 131997.607 6.863878-4 132000.620 6.422865-4 132003.633 6.025873-41125 3102  615
 132006.645 5.666912-4 132009.658 5.341016-4 132012.670 5.044086-41125 3102  616
 132015.683 4.772703-4 132018.695 4.523927-4 132022.032 4.271628-41125 3102  617
 132025.695 4.019653-4 132029.358 3.790617-4 132033.020 3.581757-41125 3102  618
 132036.683 3.390706-4 132040.345 3.215457-4 132044.008 3.054303-41125 3102  619
 132049.500 2.835812-4 132054.176 2.668960-4 132058.851 2.517448-41125 3102  620
 132063.526 2.379388-4 132068.201 2.253252-4 132072.876 2.137630-41125 3102  621
 132077.551 2.031416-4 132084.563 1.887507-4 132089.988 1.787303-41125 3102  622
 132096.164 1.683518-4 132102.339 1.589374-4 132108.514 1.503713-41125 3102  623
 132114.689 1.425541-4 132120.864 1.354007-4 132127.039 1.288379-41125 3102  624
 132136.300 1.199645-4 132143.436 1.138220-4 132150.570 1.082093-41125 3102  625
 132160.083 1.014474-4 132169.595 9.540276-5 132179.108 8.997435-51125 3102  626
 132188.620 8.507896-5 132198.133 8.064914-5 132207.645 7.662834-51125 3102  627
 132218.870 7.234326-5 132231.808 6.793870-5 132244.745 6.402616-51125 3102  628
 132257.683 6.053553-5 132270.620 5.740792-5 132283.558 5.459448-51125 3102  629
 132296.495 5.205457-5 132309.432 4.975406-5 132324.232 4.737876-51125 3102  630
 132340.895 4.498778-5 132357.558 4.285434-5 132374.220 4.094300-51125 3102  631
 132390.883 3.922433-5 132415.876 3.695412-5 132440.870 3.499306-51125 3102  632
 132465.176 3.333311-5 132489.139 3.190032-5 132513.101 3.063506-51125 3102  633
 132545.051 2.915493-5 132577.000 2.787626-5 132614.151 2.660648-51125 3102  634
 132651.301 2.553256-5 132688.451 2.460138-5 132725.600 2.379022-51125 3102  635
 132765.651 2.303321-5 132825.726 2.208887-5 132885.800 2.130792-51125 3102  636
 132959.750 2.052705-5 133033.700 1.989904-5 133104.201 1.940957-51125 3102  637
 133221.700 1.877203-5 133315.150 1.837752-5 133408.600 1.805988-51125 3102  638
 133522.051 1.775504-5 133635.500 1.751158-5 133835.750 1.720258-51125 3102  639
 134036.000 1.699004-5 134303.000 1.681455-5 134570.000 1.671679-51125 3102  640
 135048.500 1.666165-5 135778.750 1.675181-5 136730.000 1.703468-51125 3102  641
 137367.000 1.730895-5 138004.000 1.765514-5 138641.000 1.809686-51125 3102  642
 139118.750 1.852674-5 139501.000 1.894751-5 139835.400 1.942026-51125 3102  643
 140058.351 1.980252-5 140282.551 2.026453-5 140395.300 2.052286-51125 3102  644
 140620.800 2.115509-5 140811.900 2.182974-5 140939.301 2.236992-51125 3102  645
 141066.701 2.300623-5 141181.051 2.367385-5 141282.351 2.437277-51125 3102  646
 141383.626 2.519280-5 141434.250 2.564832-5 141535.500 2.670594-51125 3102  647
 141608.150 2.759600-5 141680.800 2.862326-5 141753.400 2.981724-51125 3102  648
 141826.000 3.121511-5 141889.701 3.265034-5 141953.400 3.432038-51125 3102  649
 142001.176 3.576332-5 142048.951 3.741313-5 142097.726 3.934300-51125 3102  650
 142148.500 4.167576-5 142182.351 4.344702-5 142216.200 4.542546-51125 3102  651
 142250.826 4.770032-5 142285.451 5.026803-5 142320.076 5.318845-51125 3102  652
 142346.045 5.564486-5 142371.426 5.830185-5 142396.514 6.121761-51125 3102  653
 142421.601 6.445997-5 142446.689 6.808227-5 142471.776 7.214304-51125 3102  654
 142496.463 7.663515-5 142520.351 8.155709-5 142544.239 8.712848-51125 3102  655
 142560.164 9.125206-5 142576.089 9.576099-5 142592.014 1.007084-41125 3102  656
 142607.938 1.061474-4 142622.670 1.116726-4 142636.208 1.172242-41125 3102  657
 142649.745 1.232894-4 142663.283 1.299314-4 142676.820 1.372214-41125 3102  658
 142690.358 1.452456-4 142703.895 1.541099-4 142717.432 1.639442-41125 3102  659
 142728.976 1.732102-4 142743.301 1.859995-4 142752.851 1.954228-41125 3102  660
 142762.400 2.056552-4 142771.951 2.167995-4 142781.501 2.289720-41125 3102  661
 142791.051 2.423103-4 142800.600 2.569667-4 142808.563 2.703273-41125 3102  662
 142816.526 2.848497-4 142824.489 3.006760-4 142832.451 3.179629-41125 3102  663
 142840.414 3.368996-4 142848.376 3.576954-4 142856.338 3.806062-41125 3102  664
 142864.300 4.059274-4 142870.676 4.281840-4 142877.051 4.524274-41125 3102  665
 142883.426 4.789105-4 142889.801 5.079117-4 142896.176 5.397716-41125 3102  666
 142902.551 5.748640-4 142908.926 6.136508-4 142915.300 6.566624-41125 3102  667
 142921.864 7.060620-4 142928.426 7.614852-4 142932.801 8.022919-41125 3102  668
 142937.176 8.466241-4 142941.551 8.948830-4 142945.926 9.475730-41125 3102  669
 142950.300 1.005242-3 142955.683 1.084041-3 142959.270 1.142036-31125 3102  670
 142962.858 1.204999-3 142966.445 1.273534-3 142970.033 1.348337-31125 3102  671
 142973.620 1.430209-3 142977.207 1.520098-3 142980.595 1.613357-31125 3102  672
 142983.783 1.709565-3 142986.970 1.815070-3 142990.158 1.931168-31125 3102  673
 142993.345 2.059424-3 142996.533 2.201704-3 142999.720 2.360270-31125 3102  674
 143002.111 2.491569-3 143004.500 2.634962-3 143006.888 2.792209-31125 3102  675
 143009.276 2.965401-3 143011.664 3.157268-3 143014.051 3.370987-31125 3102  676
 143015.842 3.548340-3 143017.633 3.742482-3 143019.423 3.956349-31125 3102  677
 143021.213 4.193205-3 143023.004 4.457494-3 143024.495 4.702125-31125 3102  678
 143025.836 4.944667-3 143027.176 5.211525-3 143028.517 5.507281-31125 3102  679
 143029.858 5.835826-3 143031.198 6.203110-3 143032.539 6.615358-31125 3102  680
 143033.880 7.080577-3 143034.773 7.424258-3 143035.667 7.798412-31125 3102  681
 143036.561 8.206235-3 143037.454 8.651418-3 143038.285 9.102921-31125 3102  682
 143039.438 9.795638-3 143040.208 1.030544-2 143040.976 1.085673-21125 3102  683
 143041.745 1.145496-2 143042.514 1.210248-2 143043.283 1.280491-21125 3102  684
 143044.051 1.356553-2 143044.820 1.439207-2 143045.589 1.528717-21125 3102  685
 143046.358 1.625823-2 143047.126 1.730935-2 143047.895 1.845009-21125 3102  686
 143048.663 1.968393-2 143049.432 2.102031-2 143050.200 2.246399-21125 3102  687
 143051.092 2.428837-2 143051.983 2.627955-2 143052.873 2.845461-21125 3102  688
 143053.764 3.082434-2 143054.655 3.340683-2 143055.545 3.621335-21125 3102  689
 143056.436 3.926157-2 143057.326 4.255879-2 143058.217 4.613245-21125 3102  690
 143059.107 4.998377-2 143059.700 5.271349-2 143060.676 5.750566-21125 3102  691
 143061.651 6.267899-2 143062.626 6.825751-2 143063.601 7.424720-21125 3102  692
 143064.576 8.067512-2 143065.551 8.753742-2 143066.526 9.485261-21125 3102  693
 143067.500 1.026144-1 143068.701 1.128142-1 143069.901 1.236893-11125 3102  694
 143071.101 1.352424-1 143072.701 1.516516-1 143073.900 1.646524-11125 3102  695
 143075.814 1.865267-1 143077.726 2.095207-1 143082.301 2.669768-11125 3102  696
 143085.150 3.023273-1 143087.576 3.305401-1 143089.600 3.518833-11125 3102  697
 143091.251 3.673171-1 143092.701 3.791297-1 143094.400 3.906270-11125 3102  698
 143095.951 3.986765-1 143097.451 4.040979-1 143099.051 4.071957-11125 3102  699
 143100.000 4.076945-1 143101.200 4.068889-1 143102.800 4.033409-11125 3102  700
 143104.300 3.975124-1 143105.900 3.887540-1 143107.600 3.767802-11125 3102  701
 143109.176 3.634680-1 143110.951 3.462616-1 143113.001 3.239948-11125 3102  702
 143115.400 2.955689-1 143122.476 2.070009-1 143124.313 1.849894-11125 3102  703
 143125.739 1.686406-1 143127.520 1.492778-1 143128.945 1.347564-11125 3102  704
 143130.251 1.222473-1 143131.676 1.095103-1 143132.626 1.015632-11125 3102  705
 143133.576 9.404845-2 143134.526 8.696397-2 143135.476 8.030722-21125 3102  706
 143136.426 7.407005-2 143137.482 6.761094-2 143138.355 6.264382-21125 3102  707
 143139.226 5.800643-2 143140.099 5.366932-2 143140.970 4.963703-21125 3102  708
 143141.842 4.588653-2 143142.714 4.240850-2 143143.586 3.918493-21125 3102  709
 143144.458 3.620752-2 143145.329 3.345843-2 143146.200 3.092945-21125 3102  710
 143146.895 2.905655-2 143147.588 2.730787-2 143148.283 2.567294-21125 3102  711
 143148.976 2.414882-2 143149.670 2.272442-2 143150.364 2.139841-21125 3102  712
 143151.058 2.016204-2 143151.750 1.901233-2 143152.445 1.793969-21125 3102  713
 143153.139 1.694317-2 143153.833 1.601566-2 143154.526 1.515443-21125 3102  714
 143155.567 1.397273-2 143156.607 1.291521-2 143157.300 1.227230-21125 3102  715
 143158.151 1.154408-2 143159.001 1.087868-2 143159.851 1.026930-21125 3102  716
 143160.701 9.711844-3 143161.551 9.200147-3 143162.401 8.731268-31125 3102  717
 143163.251 8.300394-3 143164.101 7.904658-3 143165.377 7.367920-31125 3102  718
 143166.651 6.892726-3 143167.927 6.469828-3 143169.201 6.092307-31125 3102  719
 143170.476 5.753490-3 143172.020 5.387837-3 143173.698 5.036944-31125 3102  720
 143175.376 4.726963-3 143177.055 4.450574-3 143178.733 4.202933-31125 3102  721
 143180.411 3.979339-3 143182.089 3.776383-3 143184.326 3.532897-31125 3102  722
 143186.563 3.315481-3 143188.800 3.120081-3 143190.901 2.953521-31125 3102  723
 143193.001 2.801328-3 143195.801 2.617520-3 143198.601 2.452534-31125 3102  724
 143201.401 2.303653-3 143204.201 2.168701-3 143207.001 2.045907-31125 3102  725
 143209.801 1.933780-3 143212.876 1.821415-3 143216.226 1.710267-31125 3102  726
 143219.576 1.609417-3 143222.926 1.517590-3 143226.276 1.433696-31125 3102  727
 143229.626 1.356822-3 143232.976 1.286192-3 143236.326 1.221129-31125 3102  728
 143240.245 1.151294-3 143244.733 1.078666-3 143249.220 1.012917-31125 3102  729
 143253.708 9.531934-4 143258.195 8.987658-4 143262.683 8.490190-41125 3102  730
 143267.170 8.034287-4 143271.657 7.615398-4 143276.701 7.183823-41125 3102  731
 143282.301 6.747727-4 143287.901 6.351593-4 143293.501 5.990642-41125 3102  732
 143299.101 5.660775-4 143304.701 5.358505-4 143310.301 5.080845-41125 3102  733
 143315.901 4.825189-4 143322.057 4.566806-4 143328.770 4.309169-41125 3102  734
 143335.483 4.073831-4 143342.195 3.858237-4 143348.908 3.660170-41125 3102  735
 143355.620 3.477737-4 143365.688 3.229956-4 143372.400 3.080048-41125 3102  736
 143381.363 2.896598-4 143390.326 2.730156-4 143399.289 2.578640-41125 3102  737
 143408.250 2.440336-4 143417.214 2.313734-4 143426.176 2.197586-41125 3102  738
 143435.138 2.090742-4 143444.100 1.992236-4 143455.301 1.879543-41125 3102  739
 143466.501 1.777145-4 143477.701 1.683816-4 143488.900 1.598508-41125 3102  740
 143500.101 1.520313-4 143511.301 1.448501-4 143528.101 1.351337-41125 3102  741
 143542.101 1.278825-4 143558.901 1.200437-4 143575.701 1.130116-41125 3102  742
 143592.501 1.066843-4 143609.301 1.009795-4 143626.101 9.582056-51125 3102  743
 143642.901 9.113548-5 143659.701 8.686415-5 143677.063 8.283618-51125 3102  744
 143694.989 7.904606-5 143721.876 7.397302-5 143748.764 6.951755-51125 3102  745
 143775.651 6.558337-5 143802.538 6.209887-5 143829.413 5.899653-51125 3102  746
 143856.283 5.621926-5 143883.150 5.373572-5 143918.976 5.079934-51125 3102  747
 143954.800 4.821237-5 143990.651 4.593197-5 144026.500 4.391611-51125 3102  748
 144062.351 4.212231-5 144098.200 4.052147-5 144151.939 3.842248-51125 3102  749
 144205.676 3.662772-5 144259.426 3.507883-5 144313.201 3.373541-51125 3102  750
 144366.976 3.256375-5 144456.551 3.092503-5 144528.200 2.982946-51125 3102  751
 144599.900 2.889174-5 144671.600 2.808416-5 144779.076 2.707208-51125 3102  752
 144886.601 2.624262-5 145012.051 2.546059-5 145173.300 2.467425-51125 3102  753
 145316.600 2.412653-5 145460.000 2.368915-5 145631.100 2.327767-51125 3102  754
 145887.650 2.283167-5 146144.300 2.251915-5 146486.400 2.226090-51125 3102  755
 146828.500 2.212084-5 147341.700 2.205744-5 148111.500 2.217298-51125 3102  756
 148881.300 2.241675-5 149565.500 2.271816-5 150934.000 2.346687-51125 3102  757
 152302.500 2.435891-5 153671.000 2.537027-5 155039.500 2.649516-51125 3102  758
 156408.000 2.773641-5 157947.601 2.929122-5 159487.100 3.100242-51125 3102  759
 161026.701 3.293126-5 162053.101 3.433332-5 163079.451 3.584505-51125 3102  760
 164105.801 3.747764-5 165098.000 3.918041-5 166055.951 4.095754-51125 3102  761
 167013.900 4.287719-5 167971.851 4.495498-5 168450.800 4.603711-51125 3102  762
 169545.600 4.873579-5 170640.400 5.171037-5 171735.200 5.500045-51125 3102  763
 172830.000 5.865311-5 173924.800 6.272382-5 174745.900 6.610706-51125 3102  764
 175567.000 6.976858-5 176388.101 7.381183-5 177209.200 7.821008-51125 3102  765
 178030.301 8.310094-5 178851.400 8.845414-5 179398.800 9.236180-51125 3102  766
 179946.200 9.655746-5 180493.600 1.010710-4 181041.000 1.059361-41125 3102  767
 181588.400 1.111915-4 182135.800 1.168812-4 182683.200 1.230559-41125 3102  768
 183230.600 1.297738-4 183778.000 1.371025-4 184325.400 1.451202-41125 3102  769
 184872.800 1.539188-4 185420.200 1.636056-4 185967.600 1.743038-41125 3102  770
 186480.801 1.854406-4 186994.000 1.976463-4 187336.100 2.065541-41125 3102  771
 187691.900 2.165162-4 188047.700 2.272671-4 188485.600 2.417076-41125 3102  772
 188923.600 2.576499-4 189334.150 2.742354-4 189471.000 2.800502-41125 3102  773
 189908.900 3.002642-4 190237.301 3.170255-4 190565.800 3.351881-41125 3102  774
 190894.201 3.551776-4 191222.600 3.769294-4 191551.101 4.010126-41125 3102  775
 191879.500 4.273582-4 192207.951 4.567177-4 192536.400 4.890234-41125 3102  776
 192755.400 5.126471-4 192974.300 5.380560-4 193193.300 5.654317-41125 3102  777
 193412.200 5.949702-4 193631.200 6.268993-4 193850.200 6.614687-41125 3102  778
 194069.100 6.989590-4 194288.100 7.396917-4 194507.000 7.840179-41125 3102  779
 194726.000 8.323429-4 194945.000 8.851141-4 195163.900 9.428312-41125 3102  780
 195382.900 1.006064-3 195601.800 1.075429-3 195820.800 1.151626-31125 3102  781
 196039.800 1.235409-3 196258.700 1.327597-3 196477.700 1.429074-31125 3102  782
 196696.600 1.540736-3 196915.600 1.663504-3 197134.600 1.798232-31125 3102  783
 197353.500 1.945628-3 197572.500 2.106185-3 197791.400 2.279931-31125 3102  784
 198010.400 2.466317-3 198229.400 2.663954-3 198941.000 3.340522-31125 3102  785
 199159.900 3.536866-3 199433.651 3.752469-3 199597.900 3.858772-31125 3102  786
 199762.076 3.941652-3 199926.301 3.999884-3 200035.800 4.022768-31125 3102  787
 200178.100 4.033905-3 200364.200 4.013625-3 200528.451 3.965552-31125 3102  788
 200692.650 3.892498-3 200856.851 3.795531-3 201021.100 3.680173-31125 3102  789
 201240.100 3.503591-3 201595.851 3.185251-3 202061.150 2.761835-31125 3102  790
 202280.101 2.572434-3 202389.600 2.480629-3 202608.600 2.308019-31125 3102  791
 202827.500 2.148337-3 203046.500 2.001805-3 203203.300 1.904848-31125 3102  792
 203360.200 1.814514-3 203589.500 1.693551-3 203818.800 1.584865-31125 3102  793
 204048.100 1.487522-3 204277.500 1.400442-3 204517.551 1.319564-31125 3102  794
 204757.600 1.247321-3 204997.650 1.183799-3 205237.700 1.127132-31125 3102  795
 205477.801 1.077413-3 205717.900 1.033155-3 205957.951 9.944408-41125 3102  796
 206198.000 9.601313-4 206518.100 9.209606-4 206838.200 8.881285-41125 3102  797
 207158.300 8.608075-4 207478.400 8.382316-4 207798.500 8.197259-41125 3102  798
 208118.600 8.046967-4 208518.800 7.899563-4 208918.900 7.788180-41125 3102  799
 209559.100 7.662790-4 211159.601 7.443786-4 211799.800 7.333176-41125 3102  800
 212472.000 7.168580-4 213080.100 6.972767-4 213720.300 6.719837-41125 3102  801
 214360.500 6.425853-4 215320.801 5.931417-4 217081.400 4.992321-41125 3102  802
 217721.600 4.671651-4 218361.800 4.372352-4 219002.000 4.097584-41125 3102  803
 219642.200 3.848917-4 220282.400 3.626791-4 220922.500 3.430921-41125 3102  804
 221562.700 3.260621-4 222202.900 3.115070-4 222843.100 2.993481-41125 3102  805
 223483.300 2.895179-4 223963.451 2.837131-4 224443.600 2.791026-41125 3102  806
 224923.750 2.759215-4 225403.900 2.739741-4 225804.000 2.734615-41125 3102  807
 226364.200 2.744886-4 226844.351 2.771687-4 227324.500 2.814368-41125 3102  808
 227644.600 2.853925-4 227964.700 2.902757-4 228284.800 2.961682-41125 3102  809
 228604.900 3.031659-4 228925.000 3.113821-4 229245.100 3.209498-41125 3102  810
 229565.200 3.320253-4 229885.300 3.447923-4 230196.600 3.590376-41125 3102  811
 230507.900 3.753251-4 230819.200 3.939318-4 231130.500 4.151697-41125 3102  812
 231344.500 4.314975-4 231558.500 4.494146-4 231778.500 4.696503-41125 3102  813
 231998.600 4.919192-4 232218.700 5.164421-4 232438.700 5.434648-41125 3102  814
 232658.800 5.732671-4 232878.800 6.061515-4 233098.900 6.424623-41125 3102  815
 233318.900 6.825655-4 233539.000 7.268697-4 233759.000 7.757955-41125 3102  816
 233979.100 8.297934-4 234199.200 8.893039-4 234419.200 9.547403-41125 3102  817
 234639.300 1.026462-3 234859.300 1.104687-3 235079.400 1.189455-31125 3102  818
 235299.400 1.280482-3 235629.551 1.427385-3 236234.700 1.709153-31125 3102  819
 236454.700 1.806204-3 236729.801 1.913748-3 236894.800 1.967470-31125 3102  820
 237059.876 2.010291-3 237224.951 2.041533-3 237335.000 2.054902-31125 3102  821
 237522.000 2.064086-3 237711.826 2.054601-3 237885.101 2.031719-31125 3102  822
 238077.626 1.991016-3 238325.200 1.920052-3 238545.300 1.844782-31125 3102  823
 239150.400 1.618764-3 239370.451 1.541854-3 239480.500 1.505399-31125 3102  824
 239755.601 1.426398-3 239920.600 1.387585-3 240085.676 1.356676-31125 3102  825
 240250.701 1.334036-3 240360.700 1.324353-3 240525.800 1.318515-31125 3102  826
 240649.551 1.322574-3 240745.826 1.330673-3 240855.876 1.346101-31125 3102  827
 240965.901 1.368932-3 241020.900 1.383046-3 241130.900 1.418801-31125 3102  828
 241236.701 1.462710-3 241342.500 1.517373-3 241444.051 1.581113-31125 3102  829
 241520.213 1.637280-3 241587.551 1.693797-3 241671.451 1.774191-31125 3102  830
 241739.626 1.848067-3 241818.301 1.944023-3 241896.976 2.052244-31125 3102  831
 241977.051 2.175846-3 242057.826 2.316172-3 242138.600 2.471709-31125 3102  832
 242219.339 2.642768-3 242300.076 2.828502-3 242412.226 3.107541-31125 3102  833
 242587.200 3.553938-3 242676.951 3.766570-3 242744.263 3.907406-31125 3102  834
 242811.576 4.022029-3 242878.889 4.104009-3 242923.763 4.137866-31125 3102  835
 242985.600 4.155226-3 243029.576 4.145578-3 243073.551 4.118335-31125 3102  836
 243117.526 4.074170-3 243183.938 3.976157-3 243251.250 3.844450-31125 3102  837
 243318.563 3.689509-3 243417.276 3.432246-3 243646.100 2.799054-31125 3102  838
 243726.839 2.587452-3 243807.576 2.389595-3 243888.326 2.206604-31125 3102  839
 243969.101 2.038902-3 244049.876 1.886250-3 244130.626 1.747941-31125 3102  840
 244211.364 1.622854-3 244292.100 1.510053-3 244372.876 1.408271-31125 3102  841
 244453.651 1.316403-3 244534.413 1.233389-3 244615.150 1.158219-31125 3102  842
 244695.888 1.090049-3 244776.651 1.028135-3 244857.426 9.717693-41125 3102  843
 244938.200 9.203629-4 245018.939 8.733863-4 245099.676 8.303218-41125 3102  844
 245207.351 7.783321-4 245315.051 7.317319-4 245422.726 6.898308-41125 3102  845
 245530.376 6.519974-4 245638.051 6.177028-4 245745.751 5.865378-41125 3102  846
 245871.376 5.540091-4 245943.150 5.364183-4 246086.700 5.045641-41125 3102  847
 246230.301 4.760423-4 246373.900 4.503782-4 246535.400 4.244885-41125 3102  848
 246696.900 4.011891-4 246840.451 3.824293-4 247042.326 3.587311-41125 3102  849
 247217.300 3.403136-4 247441.700 3.192207-4 247666.000 3.004566-41125 3102  850
 247845.400 2.868981-4 248024.900 2.744701-4 248294.101 2.577116-41125 3102  851
 248563.300 2.427022-4 248832.500 2.293754-4 249101.700 2.173071-41125 3102  852
 249370.851 2.064696-4 249640.051 1.967389-4 249819.500 1.904940-41125 3102  853
 250178.400 1.793390-4 250537.400 1.693772-4 250896.300 1.604304-41125 3102  854
 251255.200 1.523537-4 251614.100 1.450287-4 251973.100 1.383571-41125 3102  855
 252332.000 1.322577-4 252690.900 1.266616-4 253049.800 1.215107-41125 3102  856
 253565.750 1.148118-4 254036.900 1.092639-4 254665.000 1.026713-41125 3102  857
 255337.900 9.643467-5 256010.900 9.091875-5 256683.900 8.601144-51125 3102  858
 257356.900 8.162146-5 258029.851 7.769432-5 258702.800 7.411792-51125 3102  859
 259151.500 7.193581-5 260048.800 6.796793-5 260946.100 6.446046-51125 3102  860
 261843.400 6.134728-5 262740.700 5.857389-5 263638.000 5.609598-51125 3102  861
 264535.300 5.387732-5 265432.600 5.188810-5 266329.900 5.010378-51125 3102  862
 267227.200 4.850410-5 268124.500 4.707264-5 269311.000 4.541495-51125 3102  863
 270634.000 4.385466-5 271634.600 4.286244-5 272635.200 4.202465-51125 3102  864
 273635.800 4.133739-5 274636.300 4.079999-5 275636.900 4.041505-51125 3102  865
 276637.500 4.018872-5 277638.000 4.013128-5 278638.601 4.025806-51125 3102  866
 279639.200 4.059062-5 280639.700 4.115858-5 281640.300 4.200138-51125 3102  867
 282390.751 4.285642-5 283016.101 4.374304-5 283391.300 4.431715-51125 3102  868
 284141.700 4.572805-5 284892.200 4.746046-5 285455.001 4.902357-51125 3102  869
 285992.800 5.073623-5 286518.101 5.269849-5 287043.400 5.494299-51125 3102  870
 287443.600 5.690467-5 287843.800 5.910808-5 288244.100 6.158995-51125 3102  871
 288644.300 6.439377-5 289044.500 6.757227-5 289444.800 7.118957-51125 3102  872
 289845.000 7.531986-5 290145.150 7.882616-5 290445.300 8.270441-51125 3102  873
 290745.501 8.706608-5 291045.700 9.191655-5 291345.851 9.741513-51125 3102  874
 291545.950 1.014549-4 291746.051 1.058453-4 291946.150 1.106270-41125 3102  875
 292146.301 1.158466-4 292346.450 1.215581-4 292546.551 1.278237-41125 3102  876
 292646.600 1.311371-4 292846.700 1.383666-4 293046.800 1.463535-41125 3102  877
 293246.900 1.552054-4 293447.000 1.650371-4 293634.651 1.753096-41125 3102  878
 293822.251 1.866949-4 294012.351 1.996514-4 294142.451 2.093885-41125 3102  879
 294287.551 2.212804-4 294367.601 2.282052-4 294527.700 2.433543-41125 3102  880
 294677.776 2.591343-4 294787.826 2.717530-4 294907.876 2.867257-41125 3102  881
 295027.926 3.030756-4 295147.976 3.209492-4 295268.051 3.405537-41125 3102  882
 295388.151 3.621167-4 295508.226 3.858774-4 295628.276 4.121380-41125 3102  883
 295748.351 4.412624-4 295868.451 4.736712-4 295958.513 5.004084-41125 3102  884
 296048.551 5.294993-4 296138.588 5.611750-4 296228.626 5.957643-41125 3102  885
 296318.664 6.335973-4 296408.700 6.751084-4 296498.776 7.207311-41125 3102  886
 296588.851 7.710050-4 296678.913 8.264568-4 296768.950 8.877579-41125 3102  887
 296858.988 9.556655-4 296949.026 1.031080-3 297039.064 1.114893-31125 3102  888
 297129.100 1.208064-3 297204.139 1.294024-3 297279.176 1.388517-31125 3102  889
 297354.226 1.491471-3 297429.301 1.604861-3 297504.376 1.729139-31125 3102  890
 297579.426 1.865146-3 297654.464 2.013832-3 297729.500 2.175871-31125 3102  891
 297804.539 2.352126-3 297879.576 2.542693-3 297955.863 2.751445-31125 3102  892
 298034.650 2.982538-3 298113.438 3.229049-3 298218.489 3.579980-31125 3102  893
 298323.538 3.957560-3 298399.826 4.252401-3 298474.864 4.569114-31125 3102  894
 298524.888 4.803204-3 298574.926 5.065503-3 298612.464 5.288186-31125 3102  895
 298650.001 5.540534-3 298687.539 5.836078-3 298712.564 6.063574-31125 3102  896
 298737.588 6.321396-3 298760.101 6.585169-3 298780.101 6.850110-31125 3102  897
 298800.101 7.149262-3 298820.101 7.488758-3 298840.101 7.875823-31125 3102  898
 298860.101 8.319104-3 298875.101 8.694892-3 298890.101 9.113890-31125 3102  899
 298905.101 9.582453-3 298922.613 1.020174-2 298935.126 1.069867-21125 3102  900
 298947.639 1.124693-2 298960.150 1.185214-2 298972.664 1.252049-21125 3102  901
 298985.176 1.325820-2 298997.688 1.407188-2 299010.200 1.496773-21125 3102  902
 299025.220 1.615974-2 299040.239 1.748531-2 299055.258 1.894637-21125 3102  903
 299070.276 2.053626-2 299090.300 2.282228-2 299125.776 2.703426-21125 3102  904
 299137.601 2.834972-2 299149.426 2.954193-2 299161.251 3.055754-21125 3102  905
 299170.120 3.117264-2 299178.988 3.164066-2 299188.376 3.195912-21125 3102  906
 299198.800 3.208521-2 299208.926 3.197243-2 299219.051 3.163174-21125 3102  907
 299229.176 3.107661-2 299239.300 3.032899-2 299251.026 2.925972-21125 3102  908
 299262.751 2.802008-2 299280.339 2.595313-2 299315.514 2.162167-21125 3102  909
 299333.100 1.957445-2 299346.733 1.809690-2 299360.364 1.672846-21125 3102  910
 299373.995 1.547226-2 299387.626 1.432649-2 299401.257 1.328601-21125 3102  911
 299411.095 1.259674-2 299421.683 1.190883-2 299432.270 1.127311-21125 3102  912
 299442.858 1.068566-2 299453.445 1.014269-2 299469.326 9.403744-31125 3102  913
 299485.207 8.745373-3 299497.307 8.291558-3 299510.920 7.824896-31125 3102  914
 299524.533 7.399808-3 299538.145 7.011752-3 299551.758 6.656708-31125 3102  915
 299565.370 6.331139-3 299585.788 5.891362-3 299599.400 5.626686-31125 3102  916
 299617.563 5.304516-3 299635.726 5.013698-3 299653.889 4.750331-31125 3102  917
 299672.051 4.510908-3 299690.214 4.292161-3 299717.458 3.997202-31125 3102  918
 299744.700 3.736474-3 299770.226 3.518752-3 299795.751 3.323054-31125 3102  919
 299821.276 3.146018-3 299846.801 2.985002-3 299872.326 2.838143-31125 3102  920
 299897.851 2.703998-3 299936.138 2.523275-3 299972.551 2.369908-31125 3102  921
 300008.026 2.235227-3 300043.501 2.113445-3 300078.976 2.002773-31125 3102  922
 300114.451 1.901762-3 300151.338 1.805586-3 300191.051 1.710862-31125 3102  923
 300244.001 1.596935-3 300296.951 1.495138-3 300349.900 1.403876-31125 3102  924
 300410.426 1.310191-3 300470.950 1.225917-3 300531.476 1.150045-31125 3102  925
 300592.000 1.081461-3 300652.501 1.019130-3 300713.001 9.622785-41125 3102  926
 300773.501 9.102642-4 300834.000 8.625430-4 300919.126 8.017827-41125 3102  927
 301004.251 7.473315-4 301088.426 6.990185-4 301170.700 6.563423-41125 3102  928
 301252.976 6.175855-4 301337.126 5.814922-4 301422.214 5.482321-41125 3102  929
 301507.300 5.178153-4 301601.900 4.870075-4 301696.500 4.589943-41125 3102  930
 301809.950 4.285467-4 301923.400 4.011213-4 302036.900 3.763680-41125 3102  931
 302150.400 3.539175-4 302263.851 3.335312-4 302377.300 3.149297-41125 3102  932
 302490.776 2.979399-4 302679.900 2.727397-4 302831.200 2.549049-41125 3102  933
 302982.500 2.388800-4 303133.801 2.244285-4 303285.100 2.113518-41125 3102  934
 303436.400 1.994813-4 303587.700 1.886735-4 303739.001 1.788056-41125 3102  935
 303890.300 1.697720-4 304041.601 1.614815-4 304192.900 1.538549-41125 3102  936
 304344.200 1.468235-4 304571.151 1.372883-4 304798.100 1.287338-41125 3102  937
 305025.051 1.211135-4 305252.001 1.142247-4 305478.951 1.080397-41125 3102  938
 305705.900 1.024112-4 305932.851 9.732303-5 306121.976 9.341702-51125 3102  939
 306462.400 8.709773-5 306765.000 8.212806-5 307067.600 7.768313-51125 3102  940
 307370.200 7.369164-5 307672.800 7.009404-5 307975.400 6.684020-51125 3102  941
 308278.000 6.388777-5 308580.600 6.120071-5 308883.200 5.874821-51125 3102  942
 309185.800 5.650381-5 309639.700 5.349251-5 310093.600 5.080594-51125 3102  943
 310547.501 4.844426-5 311001.400 4.631935-5 311304.000 4.503617-51125 3102  944
 311909.200 4.272847-5 312514.400 4.071722-5 313119.600 3.895583-51125 3102  945
 313724.800 3.740553-5 314330.000 3.603485-5 314935.200 3.481811-51125 3102  946
 315540.400 3.373414-5 316145.600 3.276577-5 317053.400 3.149755-51125 3102  947
 317961.200 3.041529-5 318869.001 2.949476-5 319776.801 2.871674-51125 3102  948
 320382.000 2.822616-5 321592.400 2.742025-5 322802.800 2.676155-51125 3102  949
 323861.900 2.628695-5 325450.551 2.573286-5 327039.200 2.531534-51125 3102  950
 328854.801 2.501057-5 330670.400 2.483407-5 332221.200 2.478948-51125 3102  951
 334604.200 2.488399-5 336646.751 2.511785-5 338613.700 2.545306-51125 3102  952
 340542.751 2.591253-5 342471.800 2.648006-5 344400.900 2.718867-51125 3102  953
 346330.000 2.802152-5 348212.001 2.899639-5 349869.627 2.998019-51125 3102  954
 349892.909 3.004109-5 349902.221 3.017580-5 349909.206 3.044348-51125 3102  955
 349913.862 3.078882-5 349917.354 3.119303-5 349920.846 3.177770-51125 3102  956
 349923.174 3.230068-5 349925.501 3.295827-5 349927.830 3.378056-51125 3102  957
 349930.158 3.480049-5 349932.487 3.605767-5 349934.233 3.718261-51125 3102  958
 349935.979 3.848625-5 349937.726 3.999189-5 349939.471 4.172195-51125 3102  959
 349941.218 4.370599-5 349942.963 4.596805-5 349944.709 4.854014-51125 3102  960
 349946.455 5.145194-5 349948.202 5.473727-5 349949.948 5.842639-51125 3102  961
 349951.694 6.255531-5 349953.439 6.715331-5 349955.187 7.226531-51125 3102  962
 349956.932 7.791392-5 349958.678 8.413754-5 349960.424 9.096340-51125 3102  963
 349962.170 9.842690-5 349963.916 1.065519-4 349965.663 1.153665-41125 3102  964
 349967.408 1.248796-4 349969.155 1.351264-4 349970.901 1.460989-41125 3102  965
 349972.647 1.578162-4 349974.975 1.745956-4 349977.303 1.926757-41125 3102  966
 349979.049 2.070686-4 349981.376 2.273329-4 349983.705 2.487740-41125 3102  967
 349987.197 2.829048-4 349990.688 3.190382-4 349995.345 3.695372-41125 3102  968
 350007.235 5.015971-4 350012.057 5.524242-4 350016.879 5.995918-41125 3102  969
 350020.496 6.319398-4 350024.112 6.613445-4 350027.730 6.876361-41125 3102  970
 350031.346 7.107425-4 350036.168 7.366981-4 350040.990 7.574466-41125 3102  971
 350045.813 7.735438-4 350050.635 7.856631-4 350057.867 7.979385-41125 3102  972
 350065.101 8.051188-4 350077.155 8.105267-4 350106.089 8.126197-41125 3102  973
 350115.733 8.126417-4 500000.000 4.949188-4 800000.000 2.829083-41125 3102  974
 1000000.00 2.406027-4 1500000.00 2.058018-4 2000000.00 2.094996-41125 3102  975
 2500000.00 2.051989-4 3000000.00 1.821007-4 3500000.00 1.704009-41125 3102  976
 4000000.00 1.712997-4 4500000.00 1.687006-4 5000000.00 1.736992-41125 3102  977
 5500000.00 1.690006-4 6000000.00 1.713014-4 6500000.00 1.883970-41125 3102  978
 7000000.00 1.741010-4 8100000.00 1.645010-4 9000000.00 1.734002-41125 3102  979
 10000000.0 1.875993-4 10141082.0 1.879386-4 10284154.4 1.882820-41125 3102  980
 10429245.3 1.886302-4 10576383.2 1.889833-4 10725596.9 1.893414-41125 3102  981
 10876915.8 1.897046-4 11000000.0 1.900000-4 11155190.2 1.900000-41125 3102  982
 11312569.8 1.900000-4 11472169.8 1.900000-4 11634021.5 1.900000-41125 3102  983
 11798156.6 1.900000-4 11964607.4 1.900000-4 12133406.4 1.900000-41125 3102  984
 12304587.0 1.900000-4 12478182.6 1.900000-4 12654227.2 1.900000-41125 3102  985
 12832755.6 1.900000-4 13013802.7 1.900000-4 13197404.0 1.900000-41125 3102  986
 13383595.6 1.900000-4 13572414.1 1.900000-4 13763896.4 1.900000-41125 3102  987
 13958080.2 1.900000-4 14155003.6 1.900000-4 14354705.2 1.900000-41125 3102  988
 14557224.3 1.900000-4 14762600.5 1.900000-4 14970874.2 1.900000-41125 3102  989
 15182086.3 1.900000-4 15396278.2 1.900000-4 15613492.0 1.900000-41125 3102  990
 15833770.3 1.900000-4 16057156.3 1.900000-4 16283693.8 1.900000-41125 3102  991
 16513427.4 1.900000-4 16746402.2 1.900000-4 16982663.8 1.900000-41125 3102  992
 17222258.6 1.900000-4 17465233.7 1.900000-4 17711636.7 1.900000-41125 3102  993
 17961516.0 1.900000-4 18214920.6 1.900000-4 18471900.4 1.900000-41125 3102  994
 18732505.7 1.900000-4 18996787.6 1.900000-4 19264798.1 1.900000-41125 3102  995
 19536589.7 1.900000-4 19812215.8 1.900000-4 20000000.0 1.900000-41125 3102  996
                                                                  1125 3  099999
 1.102300+4 2.279230+1          0          0          0          01125 3103    1
-3.592000+6-3.592000+6          0          0          1         511125 3103    2
         51          2          0          0          0          01125 3103    3
 3.749600+6 0.000000+0 4.000000+6 1.285790-6 4.965030+6 1.772250-31125 3103    4
 5.235280+6 5.285400-3 5.505520+6 8.798550-3 5.829810+6 1.758140-21125 3103    5
 5.937910+6 3.953860-2 6.046000+6 1.319000-2 6.100050+6 2.724260-21125 3103    6
 6.262200+6 5.622610-2 6.424340+6 3.514720-2 6.586490+6 2.460770-21125 3103    7
 6.694590+6 2.109460-2 6.802680+6 4.129520-2 6.910780+6 2.724260-21125 3103    8
 7.018880+6 3.778200-2 7.126970+6 4.217350-2 7.235070+6 5.359120-21125 3103    9
 7.451260+6 3.778200-2 7.721510+6 5.886090-2 7.883650+6 5.007810-21125 3103   10
 8.045800+6 5.359120-2 8.153890+6 5.973920-2 8.261990+6 5.446950-21125 3103   11
 8.424140+6 5.095630-2 8.532230+6 4.217350-2 8.640330+6 5.183460-21125 3103   12
 8.748430+6 5.798260-2 8.856520+6 6.764380-2 8.964620+6 6.500890-21125 3103   13
 9.126770+6 5.007810-2 9.234860+6 4.041690-2 9.451060+6 5.886090-21125 3103   14
 9.613200+6 8.345290-2 9.829400+6 5.007810-2 9.991540+6 7.818320-21125 3103   15
 1.009960+7 1.212190-1 1.020770+7 1.045320-1 1.031580+7 8.345290-21125 3103   16
 1.053200+7 8.169640-2 1.100000+7 7.544900-2 1.200000+7 6.547200-21125 3103   17
 1.300000+7 5.241600-2 1.400000+7 3.966500-2 1.450000+7 3.505000-21125 3103   18
 1.500000+7 3.110400-2 1.600000+7 2.407800-2 1.700000+7 1.969100-21125 3103   19
 1.800000+7 1.651300-2 1.900000+7 1.400100-2 2.000000+7 1.209700-21125 3103   20
                                                                  1125 3  099999
 1.102300+4 2.279230+1          0          0          0          01125 3107    1
-3.865800+6-3.865800+6          0          0          1         201125 3107    2
         20          2          0          0          0          01125 3107    3
 4.035410+6 0.000000+0 5.000000+6 6.464200-8 5.500000+6 2.191200-51125 3107    4
 6.000000+6 5.359500-4 6.500000+6 3.687700-3 7.000000+6 1.251900-21125 3107    5
 8.100000+6 2.652700-2 9.000000+6 9.282100-2 1.000000+7 1.182600-11125 3107    6
 1.100000+7 1.245500-1 1.200000+7 1.229400-1 1.300000+7 1.196100-11125 3107    7
 1.400000+7 1.118600-1 1.450000+7 1.038300-1 1.500000+7 9.343500-21125 3107    8
 1.600000+7 7.025500-2 1.700000+7 4.981900-2 1.800000+7 3.421300-21125 3107    9
 1.900000+7 2.321500-2 2.000000+7 1.582300-2                      1125 3107   10
                                                                  1125 3  099999
                                                                  1125 0  0    0
 1.102300+4 2.279230+1          0          0          1          11125 8 16    1
 1.102200+4 0.000000+0          3          0          0          01125 8 16    2
                                                                  1125 8  099999
 1.102300+4 2.279230+1          0          0          1          11125 8 22    1
 9.019000+3 0.000000+0          3          0          0          01125 8 22    2
                                                                  1125 8  099999
 1.102300+4 2.279230+1          0          0          1          11125 8 28    1
 1.002200+4 0.000000+0          3          0          0          01125 8 28    2
                                                                  1125 8  099999
 1.102300+4 2.279230+1          0          0          2          11125 8102    1
 1.102400+4 0.000000+0          9          0          0          01125 8102    2
 1.102400+4 4.722070+5          9          1          0          01125 8102    3
                                                                  1125 8  099999
 1.102300+4 2.279230+1          0          0          1          11125 8103    1
 1.002300+4 0.000000+0          3          0          0          01125 8103    2
                                                                  1125 8  099999
 1.102300+4 2.279230+1          0          0          1          11125 8107    1
 9.020000+3 0.000000+0          3          0          0          01125 8107    2
                                                                  1125 8  099999
                                                                  1125 0  0    0
 1.102300+4 2.279230+1          0          0          2          01125 9102    1
 6.959290+6 6.959290+6      11024          0          1         631125 9102    2
         63          2          0          0          0          01125 9102    3
 1.000000-5 2.496503-1 2.530000-2 2.496503-1 3.500000+5 7.082453-11125 9102    4
 4.592943+5 7.208306-1 5.000000+5 6.842514-1 8.000000+5 6.742532-11125 9102    5
 1.000000+6 6.719115-1 1.500000+6 6.728302-1 2.000000+6 6.783065-11125 9102    6
 2.167095+6 6.769353-1 2.495624+6 6.062840-1 2.500000+6 6.076715-11125 9102    7
 2.755672+6 6.097031-1 2.822115+6 6.107565-1 3.000000+6 5.950995-11125 9102    8
 3.112896+6 5.921338-1 3.500000+6 6.068273-1 3.838953+6 6.149339-11125 9102    9
 4.000000+6 6.273743-1 4.016901+6 6.270131-1 4.085974+6 6.322616-11125 9102   10
 4.500000+6 6.401836-1 4.623988+6 6.484313-1 4.984094+6 6.586738-11125 9102   11
 5.000000+6 6.576630-1 5.500000+6 6.576228-1 5.614552+6 6.584238-11125 9102   12
 5.776802+6 6.630993-1 5.993666+6 6.621014-1 6.000000+6 6.617676-11125 9102   13
 6.019012+6 6.607583-1 6.029419+6 6.604360-1 6.186846+6 6.647224-11125 9102   14
 6.226106+6 6.623000-1 6.307288+6 6.642681-1 6.383188+6 6.662223-11125 9102   15
 6.466385+6 6.601961-1 6.500000+6 6.636856-1 6.508975+6 6.630985-11125 9102   16
 6.584719+6 6.574850-1 6.633311+6 6.595185-1 6.866387+6 6.525589-11125 9102   17
 6.908362+6 6.547518-1 7.000000+6 6.476960-1 7.031027+6 6.508119-11125 9102   18
 7.118817+6 6.505572-1 7.169007+6 6.470033-1 7.224238+6 6.492966-11125 9102   19
 7.252214+6 6.475429-1 7.381059+6 6.463123-1 7.392615+6 6.458046-11125 9102   20
 7.434474+6 6.498533-1 7.446270+6 6.491454-1 7.463703+6 6.483451-11125 9102   21
 7.501282+6 6.466904-1 7.586567+6 6.489020-1 7.596390+6 6.483680-11125 9102   22
 7.715381+6 6.484573-1 8.100000+6 6.516599-1 9.000000+6 6.426263-11125 9102   23
 1.000000+7 6.168080-1 1.100000+7 5.891116-1 2.000000+7 5.208149-11125 9102   24
 6.959290+6 6.487083+6      11024          1          1         631125 9102   25
         63          2          0          0          0          01125 9102   26
 1.000000-5 7.503497-1 2.530000-2 7.503497-1 3.500000+5 2.917547-11125 9102   27
 4.592943+5 2.791694-1 5.000000+5 3.157486-1 8.000000+5 3.257468-11125 9102   28
 1.000000+6 3.280885-1 1.500000+6 3.271698-1 2.000000+6 3.216935-11125 9102   29
 2.167095+6 3.230647-1 2.495624+6 3.937160-1 2.500000+6 3.923285-11125 9102   30
 2.755672+6 3.902969-1 2.822115+6 3.892435-1 3.000000+6 4.049005-11125 9102   31
 3.112896+6 4.078662-1 3.500000+6 3.931727-1 3.838953+6 3.850661-11125 9102   32
 4.000000+6 3.726257-1 4.016901+6 3.729869-1 4.085974+6 3.677384-11125 9102   33
 4.500000+6 3.598164-1 4.623988+6 3.515687-1 4.984094+6 3.413262-11125 9102   34
 5.000000+6 3.423370-1 5.500000+6 3.423772-1 5.614552+6 3.415762-11125 9102   35
 5.776802+6 3.369007-1 5.993666+6 3.378986-1 6.000000+6 3.382324-11125 9102   36
 6.019012+6 3.392417-1 6.029419+6 3.395640-1 6.186846+6 3.352776-11125 9102   37
 6.226106+6 3.377000-1 6.307288+6 3.357319-1 6.383188+6 3.337777-11125 9102   38
 6.466385+6 3.398039-1 6.500000+6 3.363144-1 6.508975+6 3.369015-11125 9102   39
 6.584719+6 3.425150-1 6.633311+6 3.404815-1 6.866387+6 3.474411-11125 9102   40
 6.908362+6 3.452482-1 7.000000+6 3.523040-1 7.031027+6 3.491881-11125 9102   41
 7.118817+6 3.494428-1 7.169007+6 3.529967-1 7.224238+6 3.507034-11125 9102   42
 7.252214+6 3.524571-1 7.381059+6 3.536877-1 7.392615+6 3.541954-11125 9102   43
 7.434474+6 3.501467-1 7.446270+6 3.508546-1 7.463703+6 3.516549-11125 9102   44
 7.501282+6 3.533096-1 7.586567+6 3.510980-1 7.596390+6 3.516320-11125 9102   45
 7.715381+6 3.515427-1 8.100000+6 3.483401-1 9.000000+6 3.573737-11125 9102   46
 1.000000+7 3.831920-1 1.100000+7 4.108884-1 2.000000+7 4.791851-11125 9102   47
                                                                  1125 9  099999
                                                                  1125 0  0    0
                                                                     0 0  0    0
                                                                    -1 0  0    0
