 JENDL/AD-2017  Cl- 37   pointwise at 293.6K                         0         0
 1.703700+4 3.664830+1          2          0          6          11731 1451    1
 0.000000+0 0.000000+0          0          0          0          61731 1451    2
 1.000000+0 2.000000+7          0          0         10          01731 1451    3
 2.936000+2 0.000000+0          1          0         79         221731 1451    4
 17-Cl- 37 KHI        EVAL-MAR94 T.WATANABE                       1731 1451    5
                      DIST-MAR18                       20090828   1731 1451    6
----JENDL/AD-2017     MATERIAL 1731                               1731 1451    7
-----INCIDENT NEUTRON DATA                                        1731 1451    8
------ENDF-6 FORMAT                                               1731 1451    9
                                                                  1731 1451   10
History                                                           1731 1451   11
2010-05 Evaluated for JENDL-4.0/1/.                               1731 1451   12
2018-01 File-making was performed for JENDL Activation File.      1731 1451   13
                                                                  1731 1451   14
MF= 1 General iformation                                          1731 1451   15
  MT=451 Descriptive data and directory                           1731 1451   16
                                                                  1731 1451   17
MF= 2 Resonance parameters                                        1731 1451   18
  MT=151 Resolved and unresolved resonance parameters             1731 1451   19
    Taken from JENDL-4.0.                                         1731 1451   20
                                                                  1731 1451   21
MF= 3 Neutron cross sections                                      1731 1451   22
  MT= 16 (n,2n) cross section                                     1731 1451   23
    Taken from JENDL-4.0.                                         1731 1451   24
                                                                  1731 1451   25
  MT= 22 (n,na) cross section                                     1731 1451   26
    Taken from JENDL-4.0.                                         1731 1451   27
                                                                  1731 1451   28
  MT= 28 (n,np) cross section                                     1731 1451   29
    Taken from JENDL-4.0.                                         1731 1451   30
                                                                  1731 1451   31
  MT= 32 (n,nd) cross section                                     1731 1451   32
    Taken from JENDL-4.0.                                         1731 1451   33
                                                                  1731 1451   34
  MT=102 Capture cross section                                    1731 1451   35
    Taken from JENDL-4.0.                                         1731 1451   36
                                                                  1731 1451   37
  MT=103 (n,p) cross section                                      1731 1451   38
    Taken from JENDL-4.0.                                         1731 1451   39
                                                                  1731 1451   40
  MT=104 (n,d) cross section                                      1731 1451   41
    Taken from JENDL-4.0.                                         1731 1451   42
                                                                  1731 1451   43
  MT=105 (n,t) cross section                                      1731 1451   44
    Taken from JENDL-4.0.                                         1731 1451   45
                                                                  1731 1451   46
  MT=106 (n,He3) cross section                                    1731 1451   47
    Taken from JENDL-4.0.                                         1731 1451   48
                                                                  1731 1451   49
  MT=107 (n,a) cross section                                      1731 1451   50
    Taken from JENDL-4.0.                                         1731 1451   51
                                                                  1731 1451   52
MF= 8 Information on decay data                                   1731 1451   53
  MT= 16 (n,2n) reaction                                          1731 1451   54
                                                                  1731 1451   55
  MT= 22 (n,na) reaction                                          1731 1451   56
                                                                  1731 1451   57
  MT= 28 (n,np) reaction                                          1731 1451   58
                                                                  1731 1451   59
  MT= 32 (n,nd) reaction                                          1731 1451   60
                                                                  1731 1451   61
  MT=102 Capture reaction                                         1731 1451   62
                                                                  1731 1451   63
  MT=103 (n,p) reaction                                           1731 1451   64
                                                                  1731 1451   65
  MT=104 (n,d) reaction                                           1731 1451   66
                                                                  1731 1451   67
  MT=105 (n,t) reaction                                           1731 1451   68
                                                                  1731 1451   69
  MT=106 (n,He3) reaction                                         1731 1451   70
                                                                  1731 1451   71
  MT=107 (n,a) reaction                                           1731 1451   72
                                                                  1731 1451   73
References                                                        1731 1451   74
 1) K.Shibata et al., J. Nucl. Sci. Technol. 48, 1 (2011).        1731 1451   75
                                                                  1731 1451   76
 ***************** Program LINEAR (VERSION 2017-1) ***************1731 1451   77
 For All Data Greater than 1.0000E-10 barns in Absolute Value     1731 1451   78
 Data Linearized to Within an Accuracy of .100000000 per-cent     1731 1451   79
 ***************** Program SIGMA1 (VERSION 2017-1) ***************1731 1451   80
 Data Doppler Broadened to 293.600000 Kelvin                      1731 1451   81
 for All Data Greater than 1.0000E-10 barns in Absolute Value     1731 1451   82
 Data Linearized to Within an Accuracy of .100000000 per-cent     1731 1451   83
                                1        451        105          11731 1451   84
                                2        151         34          11731 1451   85
                                3         16          7          11731 1451   86
                                3         22          8          11731 1451   87
                                3         28          8          11731 1451   88
                                3         32          5          11731 1451   89
                                3        102       1492          11731 1451   90
                                3        103          9          11731 1451   91
                                3        104          9          11731 1451   92
                                3        105          7          11731 1451   93
                                3        106          6          11731 1451   94
                                3        107         10          11731 1451   95
                                8         16          2          11731 1451   96
                                8         22          2          11731 1451   97
                                8         28          2          11731 1451   98
                                8         32          2          11731 1451   99
                                8        102          2          11731 1451  100
                                8        103          2          11731 1451  101
                                8        104          2          11731 1451  102
                                8        105          2          11731 1451  103
                                8        106          2          11731 1451  104
                                8        107          2          11731 1451  105
                                                                  1731 1  099999
                                                                  1731 0  0    0
 1.703700+4 3.664830+1          0          0          1          01731 2151    1
 1.703700+4 1.000000+0          0          0          1          01731 2151    2
 1.000000-5 2.020000+5          1          2          1          01731 2151    3
 0.000000+0 0.000000+0          0          0          1          41731 2151    4
          4          2          0          0          0          01731 2151    5
 1.000000-5 3.400000-1 7.700000+3 3.400000-1 8.303000+3 4.200000-11731 2151    6
 2.020000+5 4.200000-1                                            1731 2151    7
 1.500000+0 0.000000+0          0          0          2          01731 2151    8
 3.668210+1 0.000000+0          0          0         90         151731 2151    9
-1.000000+3 1.000000+0 9.190000+0 8.200000+0 9.900000-1 0.000000+01731 2151   10
 8.303000+3 2.000000+0 9.304800+1 9.280000+1 2.480000-1 0.000000+01731 2151   11
 2.553000+4 1.000000+0 7.711343+2 7.706700+2 4.643000-1 0.000000+01731 2151   12
 4.649000+4 2.000000+0 4.627550+2 4.624000+2 3.550000-1 0.000000+01731 2151   13
 5.513000+4 2.000000+0 1.048690+2 1.048000+2 6.899990-2 0.000000+01731 2151   14
 5.540000+4 2.000000+0 1.129480+2 1.128000+2 1.480000-1 0.000000+01731 2151   15
 9.280990+4 2.000000+0 6.466750+2 6.464000+2 2.750000-1 0.000000+01731 2151   16
 1.250000+5 2.000000+0 1.842483+2 1.840000+2 2.483000-1 0.000000+01731 2151   17
 1.273000+5 2.000000+0 3.307550+2 3.304000+2 3.550000-1 0.000000+01731 2151   18
 1.362200+5 1.000000+0 1.653248+3 1.653000+3 2.483000-1 0.000000+01731 2151   19
 1.450000+5 2.000000+0 1.160248+3 1.160000+3 2.483000-1 0.000000+01731 2151   20
 1.590000+5 1.000000+0 4.535483+2 4.533000+2 2.483000-1 0.000000+01731 2151   21
 1.800000+5 1.000000+0 1.467248+3 1.467000+3 2.483000-1 0.000000+01731 2151   22
 1.930000+5 1.000000+0 1.233248+3 1.233000+3 2.483000-1 0.000000+01731 2151   23
 2.020000+5 1.000000+0 2.933248+3 2.933000+3 2.483000-1 0.000000+01731 2151   24
 3.668210+1 0.000000+0          1          0         54          91731 2151   25
 1.634000+4 3.000000+0 1.167830+1 1.143000+1 2.483000-1 0.000000+01731 2151   26
 2.783000+4 2.000000+0 6.621000+0 6.558000+0 6.300000-2 0.000000+01731 2151   27
 4.238000+4 1.000000+0 5.386000-1 2.903000-1 2.483000-1 0.000000+01731 2151   28
 6.654990+4 2.000000+0 2.744830+1 2.720000+1 2.483000-1 0.000000+01731 2151   29
 6.683990+4 2.000000+0 5.301200+1 5.280000+1 2.120000-1 0.000000+01731 2151   30
 8.623990+4 1.000000+0 1.377300+0 1.129000+0 2.483000-1 0.000000+01731 2151   31
 1.350000+5 0.000000+0 1.652248+3 1.652000+3 2.483000-1 0.000000+01731 2151   32
 1.363000+5 3.000000+0 7.088483+2 7.086000+2 2.483000-1 0.000000+01731 2151   33
 1.507000+5 0.000000+0 3.700100+2 3.695000+2 5.100000-1 0.000000+01731 2151   34
                                                                  1731 2  099999
                                                                  1731 0  0    0
 1.703700+4 3.664830+1          0          0          0          01731 3 16    1
-1.031140+7-1.031140+7          0          0          1         121731 3 16    2
         12          2          0          0          0          01731 3 16    3
 1.059010+7 0.000000+0 1.100000+7 5.232580-3 1.200000+7 7.498420-21731 3 16    4
 1.300000+7 2.175930-1 1.400000+7 3.625170-1 1.450000+7 4.213870-11731 3 16    5
 1.500000+7 4.708790-1 1.600000+7 5.411830-1 1.700000+7 5.812300-11731 3 16    6
 1.800000+7 6.043890-1 1.900000+7 6.188430-1 2.000000+7 6.277920-11731 3 16    7
                                                                  1731 3  099999
 1.703700+4 3.664830+1          0          0          0          01731 3 22    1
-7.849430+6-7.849430+6          0          0          1         141731 3 22    2
         14          2          0          0          0          01731 3 22    3
 8.061590+6 0.000000+0 9.000000+6 5.17841-13 1.000000+7 3.615230-71731 3 22    4
 1.100000+7 2.939860-5 1.200000+7 1.915590-4 1.300000+7 9.121310-41731 3 22    5
 1.400000+7 2.724150-3 1.450000+7 3.928730-3 1.500000+7 5.201790-31731 3 22    6
 1.600000+7 7.620410-3 1.700000+7 9.727670-3 1.800000+7 1.123440-21731 3 22    7
 1.900000+7 1.193390-2 2.000000+7 1.201640-2                      1731 3 22    8
                                                                  1731 3  099999
 1.703700+4 3.664830+1          0          0          0          01731 3 28    1
-8.384810+6-8.384810+6          0          0          1         141731 3 28    2
         14          2          0          0          0          01731 3 28    3
 8.611440+6 0.000000+0 9.000000+6 6.049080-6 1.000000+7 4.234080-31731 3 28    4
 1.100000+7 3.213890-2 1.200000+7 6.612050-2 1.300000+7 8.094200-21731 3 28    5
 1.400000+7 8.343160-2 1.450000+7 8.349220-2 1.500000+7 8.417890-21731 3 28    6
 1.600000+7 8.702300-2 1.700000+7 9.315430-2 1.800000+7 1.018170-11731 3 28    7
 1.900000+7 1.116090-1 2.000000+7 1.208180-1                      1731 3 28    8
                                                                  1731 3  099999
 1.703700+4 3.664830+1          0          0          0          01731 3 32    1
-1.605220+7-1.605220+7          0          0          1          51731 3 32    2
          5          2          0          0          0          01731 3 32    3
 1.648600+7 0.000000+0 1.700000+7 3.31980-12 1.800000+7 4.760150-61731 3 32    4
 1.900000+7 5.740540-4 2.000000+7 4.479300-3                      1731 3 32    5
                                                                  1731 3  099999
 1.703700+4 3.664830+1          0          0          0          01731 3102    1
 6.108290+6 6.108290+6          0          0          1       44661731 3102    2
       4466          2          0          0          0          01731 3102    3
 1.000000-5 2.177305+1 1.103037-5 2.073119+1 1.216691-5 1.973918+11731 3102    4
 1.342055-5 1.879464+1 1.480336-5 1.789530+1 1.632865-5 1.703900+11731 3102    5
 1.801111-5 1.622367+1 1.986691-5 1.544735+1 2.191394-5 1.470818+11731 3102    6
 2.417189-5 1.400438+1 2.666248-5 1.333426+1 2.940971-5 1.269620+11731 3102    7
 3.243999-5 1.208868+1 3.578251-5 1.151022+1 3.946943-5 1.095945+11731 3102    8
 4.353624-5 1.043503+1 4.802208-5 9.935705+0 5.297013-5 9.460272+01731 3102    9
 5.842801-5 9.007590+0 6.444825-5 8.576569+0 7.108881-5 8.166172+01731 3102   10
 7.841358-5 7.775414+0 8.649308-5 7.403353+0 9.540506-5 7.049096+01731 3102   11
 1.052353-4 6.711790+0 1.160784-4 6.390625+0 1.280388-4 6.084828+01731 3102   12
 1.412315-4 5.793663+0 1.557836-4 5.516431+0 1.718351-4 5.252465+01731 3102   13
 1.895404-4 5.001130+0 2.090701-4 4.761821+0 2.306120-4 4.533964+01731 3102   14
 2.543736-4 4.317009+0 2.805835-4 4.110436+0 3.094939-4 3.913748+01731 3102   15
 3.413832-4 3.726472+0 3.765583-4 3.548156+0 4.153577-4 3.378374+01731 3102   16
 4.581549-4 3.216715+0 5.053618-4 3.062792+0 5.574328-4 2.916235+01731 3102   17
 6.148689-4 2.776690+0 6.782232-4 2.643823+0 7.481052-4 2.517313+01731 3102   18
 8.251877-4 2.396857+0 9.102125-4 2.282165+0 1.003998-3 2.172961+01731 3102   19
 1.107447-3 2.068982+0 1.221555-3 1.969979+0 1.347420-3 1.875714+01731 3102   20
 1.486254-3 1.785959+0 1.639393-3 1.700498+0 1.808311-3 1.619128+01731 3102   21
 1.994634-3 1.541650+0 2.200155-3 1.467880+0 2.426853-3 1.397640+01731 3102   22
 2.676908-3 1.330761+0 2.952729-3 1.267083+0 3.256969-3 1.206451+01731 3102   23
 3.592557-3 1.148720+0 3.962723-3 1.093752+0 4.371030-3 1.041415+01731 3102   24
 4.821407-3 9.915811-1 5.318191-3 9.441322-1 5.866161-3 8.989537-11731 3102   25
 6.470592-3 8.559370-1 7.137302-3 8.149786-1 7.872708-3 7.759801-11731 3102   26
 8.683888-3 7.388476-1 9.578649-3 7.034919-1 1.056560-2 6.698280-11731 3102   27
 1.165425-2 6.377750-1 1.285507-2 6.072559-1 1.417962-2 5.781976-11731 3102   28
 1.564064-2 5.505306-1 1.725221-2 5.241894-1 1.902982-2 4.991118-11731 3102   29
 2.099059-2 4.752391-1 2.315340-2 4.525156-1 2.524188-2 4.334126-11731 3102   30
 2.530000-2 4.329151-1 2.790683-2 4.122294-1 3.078227-2 3.925340-11731 3102   31
 3.395398-2 3.737739-1 3.745250-2 3.558978-1 4.131149-2 3.388621-11731 3102   32
 4.556810-2 3.226331-1 5.026329-2 3.071784-1 5.544227-2 2.924707-11731 3102   33
 6.115487-2 2.784793-1 6.745608-2 2.651667-1 7.440655-2 2.524870-11731 3102   34
 8.207318-2 2.403998-1 9.052975-2 2.288806-1 9.985766-2 2.179108-11731 3102   35
 0.11014669 2.074694-1 0.12149586 1.975372-1 0.13401443 1.880965-11731 3102   36
 0.14782287 1.791096-1 0.16305408 1.705338-1 0.17985468 1.623574-11731 3102   37
 0.19838636 1.545724-1 0.21882748 1.471620-1 0.24137480 1.401091-11731 3102   38
 0.26624532 1.334080-1 0.29367842 1.270404-1 0.32393815 1.209536-11731 3102   39
 0.35731575 1.151492-1 0.39413248 1.096239-1 0.43474269 1.043643-11731 3102   40
 0.47953725 9.935818-2 0.52894730 9.461232-2 0.58756412 8.977280-21731 3102   41
 0.64810494 8.545910-2 0.71488369 8.135265-2 0.78854313 7.744364-21731 3102   42
 0.86979221 7.372224-2 0.95941294 7.017968-2 1.05085509 6.706535-21731 3102   43
 1.16730863 6.362059-2 1.28758455 6.055693-2 1.42025334 5.764041-21731 3102   44
 1.56659191 5.486269-2 1.72800876 5.221815-2 1.90605751 4.970034-21731 3102   45
 2.10245186 4.730260-2 2.30283763 4.519274-2 2.55803323 4.286027-21731 3102   46
 2.82160517 4.078685-2 3.11233476 3.880892-2 3.43302024 3.692676-21731 3102   47
 3.78674818 3.513471-2 4.17692316 3.342774-2 4.57502787 3.192380-21731 3102   48
 5.04642479 3.036916-2 5.56639301 2.888840-2 6.09722799 2.757305-21731 3102   49
 6.72546776 2.621674-2 7.41843945 2.493102-2 8.18281282 2.370111-21731 3102   50
 9.02594489 2.253272-2 10.0256891 2.134199-2 11.0587055 2.028312-21731 3102   51
 12.0284608 1.941227-2 13.0832556 1.857531-2 14.4313143 1.763715-21731 3102   52
 15.9182729 1.674734-2 17.5584432 1.589686-2 19.7794024 1.491535-21731 3102   53
 21.9702358 1.409751-2 23.8968404 1.346885-2 25.9923921 1.286423-21731 3102   54
 28.2717060 1.228060-2 31.1847364 1.163005-2 34.1586459 1.104915-21731 3102   55
 36.8938188 1.058517-2 40.1290960 1.008652-2 43.9559778 9.570531-31731 3102   56
 47.4756489 9.149239-3 51.2796655 8.742829-3 55.3857636 8.350469-31731 3102   57
 59.8235832 7.970126-3 65.5254000 7.537420-3 71.2714258 7.152866-31731 3102   58
 78.0681730 6.753046-3 86.7152676 6.311511-3 94.9848054 5.945840-31731 3102   59
 102.590489 5.646693-3 110.034424 5.383195-3 118.018488 5.127105-31731 3102   60
 128.367715 4.830897-3 138.653261 4.569104-3 151.868374 4.273103-31731 3102   61
 164.036925 4.031121-3 175.939394 3.818586-3 187.383679 3.633268-31731 3102   62
 199.582170 3.453730-3 212.564341 3.279976-3 226.402069 3.111394-31731 3102   63
 242.829733 2.929675-3 260.449384 2.756508-3 279.347511 2.588656-31731 3102   64
 299.616881 2.427794-3 321.356990 2.273733-3 349.537292 2.097393-31731 3102   65
 374.899610 1.957666-3 396.508194 1.849834-3 422.299761 1.734092-31731 3102   66
 446.640410 1.635193-3 469.098127 1.551727-3 496.136155 1.460066-31731 3102   67
 524.732610 1.372259-3 554.977316 1.288460-3 595.246299 1.189424-31731 3102   68
 629.555296 1.114087-3 665.841805 1.042589-3 704.219808 9.747716-41731 3102   69
 739.592693 9.182057-4 771.339364 8.716788-4 806.655370 8.243926-41731 3102   70
 841.280674 7.819187-4 876.933647 7.418168-4 918.461571 6.992813-41731 3102   71
 953.846848 6.660104-4 989.232126 6.352721-4 1031.69445 6.013783-41731 3102   72
 1074.95741 5.699928-4 1113.30113 5.443006-4 1152.95599 5.196652-41731 3102   73
 1193.18590 4.965220-4 1240.03808 4.718163-4 1286.89027 4.491749-41731 3102   74
 1343.08490 4.245013-4 1390.99273 4.052598-4 1447.58553 3.844687-41731 3102   75
 1510.49600 3.634530-4 1575.33333 3.441601-4 1642.95378 3.258908-41731 3102   76
 1713.47680 3.088510-4 1787.02699 2.928124-4 1872.37849 2.763503-41731 3102   77
 1975.73600 2.588630-4 2075.07883 2.443437-4 2177.08178 2.313679-41731 3102   78
 2270.53200 2.209062-4 2364.49052 2.116286-4 2458.19489 2.034627-41731 3102   79
 2551.89926 1.962578-4 2645.60363 1.899084-4 2758.49600 1.832962-41731 3102   80
 2852.85674 1.785034-4 2975.31428 1.731914-4 3106.24771 1.685458-41731 3102   81
 3239.58194 1.648460-4 3395.23859 1.616220-4 3535.46696 1.596928-41731 3102   82
 3676.35170 1.586215-4 3790.17200 1.583257-4 3957.46481 1.589346-41731 3102   83
 4115.84000 1.604929-4 4268.26783 1.630479-4 4425.98666 1.667164-41731 3102   84
 4581.08000 1.714128-4 4707.09977 1.762116-4 4834.43227 1.819074-41731 3102   85
 4953.27200 1.880827-4 5081.91725 1.959918-4 5175.62162 2.025135-41731 3102   86
 5269.32599 2.097959-4 5363.03036 2.179242-4 5476.78941 2.290683-41731 3102   87
 5550.43910 2.371383-4 5628.74580 2.464965-4 5697.65600 2.554034-41731 3102   88
 5778.03967 2.670136-4 5883.75200 2.840019-4 5966.76115 2.992032-41731 3102   89
 6083.65671 3.235121-4 6162.89600 3.423313-4 6232.68200 3.608980-41731 3102   90
 6302.46800 3.812789-4 6372.25400 4.041403-4 6442.04000 4.293884-41731 3102   91
 6488.56400 4.479501-4 6535.08800 4.679958-4 6581.61200 4.896855-41731 3102   92
 6628.13600 5.132017-4 6674.66000 5.387530-4 6721.18400 5.665793-41731 3102   93
 6767.70800 5.969567-4 6814.23200 6.302054-4 6860.75600 6.666972-41731 3102   94
 6907.28000 7.068669-4 6953.80400 7.512249-4 7000.32800 8.003738-41731 3102   95
 7046.85200 8.550293-4 7093.37600 9.159927-4 7128.26901 9.666296-41731 3102   96
 7163.16200 1.021680-3 7198.05501 1.082318-3 7232.94800 1.148526-31731 3102   97
 7267.84101 1.221914-3 7302.73400 1.302520-3 7337.62701 1.392510-31731 3102   98
 7372.52000 1.492025-3 7395.78200 1.565002-3 7419.04400 1.643749-31731 3102   99
 7442.30600 1.728894-3 7465.56800 1.821151-3 7488.83000 1.921337-31731 3102  100
 7512.09200 2.030389-3 7535.35400 2.149387-3 7558.61600 2.279581-31731 3102  101
 7581.87800 2.422424-3 7605.14000 2.579371-3 7628.40200 2.752619-31731 3102  102
 7651.66400 2.944942-3 7676.08926 3.170079-3 7695.86200 3.371834-31731 3102  103
 7714.47151 3.581964-3 7735.40700 3.839707-3 7756.34326 4.129139-31731 3102  104
 7777.27901 4.453308-3 7791.23600 4.691414-3 7805.19301 4.949665-31731 3102  105
 7819.15000 5.230050-3 7833.10750 5.535555-3 7847.06500 5.868816-31731 3102  106
 7861.02200 6.233810-3 7874.97900 6.634116-3 7888.93650 7.075078-31731 3102  107
 7902.89400 7.561654-3 7916.85101 8.101178-3 7930.80800 8.700590-31731 3102  108
 7941.27576 9.195524-3 7951.74351 9.734308-3 7962.21138 1.032219-21731 3102  109
 7972.67951 1.096499-2 7983.14763 1.166676-2 7993.61551 1.244190-21731 3102  110
 8004.08326 1.329724-2 8014.55100 1.424398-2 8025.01914 1.529564-21731 3102  111
 8035.48726 1.646807-2 8045.95526 1.778032-2 8052.93376 1.874396-21731 3102  112
 8059.91226 1.978771-2 8066.89076 2.092064-2 8073.40401 2.206763-21731 3102  113
 8082.47601 2.382779-2 8088.52401 2.511869-2 8094.57200 2.651559-21731 3102  114
 8100.62026 2.803410-2 8106.66850 2.968423-2 8112.71676 3.148102-21731 3102  115
 8118.76500 3.344163-2 8125.74376 3.593891-2 8132.72251 3.872147-21731 3102  116
 8139.70113 4.183268-2 8144.35339 4.411464-2 8149.00564 4.658328-21731 3102  117
 8153.65788 4.925893-2 8158.31026 5.216465-2 8162.96276 5.532649-21731 3102  118
 8167.61526 5.877401-2 8172.26776 6.254103-2 8176.92013 6.666606-21731 3102  119
 8181.57239 7.119341-2 8186.22464 7.617425-2 8190.87688 8.166669-21731 3102  120
 8195.52926 8.773755-2 8200.18176 9.446445-2 8203.67114 9.999321-21731 3102  121
 8207.16051 1.059832-1 8210.64988 1.124816-1 8214.13926 1.195407-11731 3102  122
 8217.62864 1.272182-1 8221.11801 1.355779-1 8224.60739 1.446897-11731 3102  123
 8228.09676 1.546299-1 8231.58607 1.654813-1 8235.07526 1.773314-11731 3102  124
 8238.56445 1.902722-1 8242.05364 2.043982-1 8245.54283 2.198038-11731 3102  125
 8249.03200 2.365773-1 8252.52139 2.547951-1 8256.01076 2.745087-11731 3102  126
 8259.50014 2.957345-1 8262.98951 3.184355-1 8267.64200 3.507925-11731 3102  127
 8275.08550 4.060660-1 8282.52900 4.614405-1 8286.01839 4.853523-11731 3102  128
 8289.50776 5.066353-1 8292.99713 5.242724-1 8295.32339 5.335304-11731 3102  129
 8297.64964 5.405012-1 8299.97588 5.449915-1 8302.81400 5.469274-11731 3102  130
 8305.61695 5.449551-1 8308.23389 5.397085-1 8310.85083 5.313579-11731 3102  131
 8313.46776 5.201721-1 8316.95700 5.014595-1 8321.31864 4.734332-11731 3102  132
 8327.13414 4.313272-1 8337.31126 3.551110-1 8341.61476 3.247018-11731 3102  133
 8345.80201 2.970642-1 8349.98926 2.715475-1 8354.17651 2.482131-11731 3102  134
 8358.36376 2.270201-1 8361.15526 2.140298-1 8363.94670 2.019024-11731 3102  135
 8366.73808 1.905914-1 8369.52945 1.800480-1 8373.71651 1.655654-11731 3102  136
 8377.90358 1.525398-1 8382.09063 1.408187-1 8384.88200 1.336589-11731 3102  137
 8388.13876 1.259067-1 8391.39551 1.187485-1 8394.65226 1.121320-11731 3102  138
 8397.90900 1.060098-1 8401.16576 1.003386-1 8404.42251 9.507904-21731 3102  139
 8409.30763 8.788465-2 8414.19263 8.143078-2 8419.07758 7.562528-21731 3102  140
 8423.96250 7.038914-2 8428.84745 6.565458-2 8433.73238 6.136245-21731 3102  141
 8438.61738 5.746151-2 8443.50251 5.390750-2 8448.38764 5.066207-21731 3102  142
 8453.27276 4.769176-2 8458.15789 4.496731-2 8463.04300 4.246305-21731 3102  143
 8468.10233 4.007768-2 8473.16164 3.788280-2 8479.90739 3.521973-21731 3102  144
 8486.65313 3.282355-2 8493.22463 3.071473-2 8499.62189 2.885085-21731 3102  145
 8506.01914 2.714146-2 8512.41638 2.557309-2 8519.27876 2.403741-21731 3102  146
 8526.60626 2.254353-2 8533.93376 2.118307-2 8541.26126 1.994113-21731 3102  147
 8548.41426 1.883553-2 8555.39276 1.783627-2 8562.37126 1.691335-21731 3102  148
 8572.83900 1.565597-2 8583.30714 1.453241-2 8593.77526 1.352449-21731 3102  149
 8604.24326 1.261686-2 8614.71100 1.179670-2 8625.17876 1.105320-21731 3102  150
 8635.64651 1.037717-2 8646.11426 9.760795-3 8656.58200 9.197340-31731 3102  151
 8667.05014 8.681012-3 8677.51826 8.206711-3 8691.47551 7.632013-31731 3102  152
 8705.43251 7.115198-3 8719.38976 6.648885-3 8733.34726 6.226665-31731 3102  153
 8747.30451 5.843214-3 8761.26151 5.493942-3 8775.21851 5.174946-31731 3102  154
 8789.17551 4.882803-3 8803.13276 4.614860-3 8824.06900 4.252969-31731 3102  155
 8841.51550 3.982078-3 8858.96200 3.735960-3 8875.24551 3.526422-31731 3102  156
 8891.52900 3.333998-3 8908.39401 3.150859-3 8925.25900 2.982371-31731 3102  157
 8942.70550 2.821859-3 8960.15200 2.673964-3 8977.59850 2.537392-31731 3102  158
 8995.04500 2.411032-3 9012.49150 2.293885-3 9029.93800 2.185089-31731 3102  159
 9050.29200 2.067961-3 9070.64600 1.959684-3 9093.90800 1.846158-31731 3102  160
 9117.17000 1.742259-3 9140.43201 1.646932-3 9163.69400 1.559265-31731 3102  161
 9186.95601 1.478461-3 9210.21800 1.403826-3 9233.48000 1.334752-31731 3102  162
 9256.74200 1.270701-3 9280.00401 1.211201-3 9314.89701 1.129808-31731 3102  163
 9349.79000 1.056046-3 9384.68301 9.897428-4 9419.57601 9.292801-41731 3102  164
 9454.46901 8.745733-4 9489.36200 8.244116-4 9524.25501 7.787611-41731 3102  165
 9553.33251 7.435044-4 9605.67200 6.860587-4 9652.19600 6.405444-41731 3102  166
 9698.72000 5.995639-4 9745.24400 5.625391-4 9791.76800 5.289811-41731 3102  167
 9838.29200 4.984742-4 9884.81600 4.706628-4 9931.34000 4.452418-41731 3102  168
 9977.86400 4.219479-4 10024.3900 4.005528-4 10070.9100 3.808587-41731 3102  169
 10117.4400 3.626916-4 10163.9600 3.459007-4 10210.4800 3.303521-41731 3102  170
 10257.0100 3.159280-4 10326.7951 2.962589-4 10396.5800 2.784222-41731 3102  171
 10466.3651 2.624715-4 10536.1500 2.479220-4 10605.9400 2.348265-41731 3102  172
 10675.7200 2.228209-4 10722.2500 2.154482-4 10815.3000 2.019606-41731 3102  173
 10908.3400 1.899548-4 11001.3900 1.792362-4 11094.4400 1.696364-41731 3102  174
 11187.4900 1.610137-4 11280.5400 1.532486-4 11373.5800 1.462399-41731 3102  175
 11466.6300 1.399009-4 11559.6800 1.341578-4 11652.7300 1.289469-41731 3102  176
 11745.7800 1.242134-4 11838.8200 1.199100-4 11978.3950 1.142085-41731 3102  177
 12117.9700 1.091937-4 12257.5400 1.049070-4 12397.1100 1.011511-41731 3102  178
 12536.6851 9.796970-5 12676.2600 9.521699-5 12769.3000 9.364163-51731 3102  179
 12949.4518 9.110922-5 13132.1453 8.919051-5 13317.4162 8.788246-51731 3102  180
 13544.3856 8.715198-5 13583.4700 8.711806-5 13775.1083 8.747488-51731 3102  181
 13932.4000 8.834902-5 14071.9800 8.967526-5 14165.0200 9.088141-51731 3102  182
 14258.0700 9.238525-5 14351.1200 9.422871-5 14444.1700 9.646663-51731 3102  183
 14537.2200 9.916925-5 14630.2600 1.024272-4 14723.3100 1.063546-41731 3102  184
 14793.1000 1.098539-4 14855.5750 1.135043-4 14914.3950 1.172723-41731 3102  185
 14973.2100 1.216295-4 15032.0351 1.266611-4 15090.8500 1.323883-41731 3102  186
 15149.6750 1.390752-4 15188.8851 1.441018-4 15228.1000 1.496782-41731 3102  187
 15267.3150 1.558853-4 15306.5251 1.628199-4 15326.1300 1.665246-41731 3102  188
 15365.3500 1.747642-4 15404.5600 1.840670-4 15453.6151 1.974728-41731 3102  189
 15483.1500 2.066763-4 15512.6776 2.169178-4 15545.8751 2.297939-41731 3102  190
 15569.2300 2.398781-4 15592.5901 2.509227-4 15624.7076 2.679073-41731 3102  191
 15650.9800 2.835892-4 15677.2601 3.012229-4 15697.6976 3.165475-41731 3102  192
 15709.3751 3.258281-4 15732.7300 3.462158-4 15759.0026 3.720646-41731 3102  193
 15776.5201 3.913859-4 15794.0401 4.126183-4 15811.5576 4.359956-41731 3102  194
 15829.0726 4.618304-4 15846.5901 4.904586-4 15864.1101 5.223149-41731 3102  195
 15881.6276 5.578921-4 15894.7639 5.873883-4 15907.9000 6.196095-41731 3102  196
 15921.0401 6.549219-4 15934.1801 6.937273-4 15947.3188 7.364958-41731 3102  197
 15960.4551 7.837955-4 15973.5913 8.362786-4 15986.7301 8.947229-41731 3102  198
 15999.8701 9.600899-4 16013.0100 1.033514-3 16026.1464 1.116001-31731 3102  199
 16034.9039 1.177094-3 16043.6613 1.243857-3 16052.4201 1.316810-31731 3102  200
 16061.1801 1.396768-3 16069.9401 1.484647-3 16078.7001 1.581527-31731 3102  201
 16087.4588 1.688668-3 16096.2164 1.807621-3 16104.9739 1.940172-31731 3102  202
 16111.5420 2.049718-3 16118.1100 2.169143-3 16124.6801 2.299731-31731 3102  203
 16131.2501 2.442867-3 16137.8201 2.600217-3 16144.3901 2.773723-31731 3102  204
 16150.9601 2.965682-3 16157.5288 3.178769-3 16164.0970 3.416298-31731 3102  205
 16170.6650 3.682183-3 16175.0439 3.877262-3 16179.4226 4.088143-31731 3102  206
 16183.8013 4.316675-3 16188.1800 4.565501-3 16193.6551 4.909245-31731 3102  207
 16199.1301 5.294151-3 16202.7800 5.576834-3 16206.4301 5.883096-31731 3102  208
 16210.0801 6.215613-3 16213.7301 6.577489-3 16217.3800 6.972273-31731 3102  209
 16221.7583 7.495103-3 16226.1364 8.079647-3 16229.0551 8.508564-31731 3102  210
 16231.9739 8.972970-3 16234.8926 9.476906-3 16237.8113 1.002500-21731 3102  211
 16240.7300 1.062233-2 16244.2889 1.142591-2 16247.8476 1.232441-21731 3102  212
 16250.2200 1.298399-2 16252.5926 1.369850-2 16254.9651 1.447416-21731 3102  213
 16257.3376 1.531815-2 16259.7100 1.623862-2 16262.5020 1.743288-21731 3102  214
 16265.2939 1.876459-2 16268.0858 2.025580-2 16269.9470 2.135136-21731 3102  215
 16271.8083 2.253851-2 16273.6695 2.382769-2 16275.4032 2.513102-21731 3102  216
 16277.8126 2.712831-2 16279.4189 2.859606-2 16281.0251 3.018713-21731 3102  217
 16282.6314 3.191606-2 16284.2376 3.379900-2 16285.8438 3.585499-21731 3102  218
 16287.4500 3.810566-2 16288.7638 4.010918-2 16290.0776 4.227584-21731 3102  219
 16291.3914 4.462415-2 16292.7051 4.717476-2 16294.0189 4.995215-21731 3102  220
 16295.3326 5.298362-2 16296.6463 5.630167-2 16297.9600 5.994337-21731 3102  221
 16299.4920 6.465828-2 16300.5133 6.811954-2 16301.5345 7.186839-21731 3102  222
 16302.5558 7.593795-2 16303.5770 8.036613-2 16304.5983 8.519652-21731 3102  223
 16305.6195 9.047981-2 16306.5320 9.563190-2 16307.7376 1.031496-11731 3102  224
 16308.5414 1.086707-1 16309.3450 1.146518-1 16310.1489 1.211475-11731 3102  225
 16310.9526 1.282173-1 16311.7563 1.359326-1 16312.5600 1.443735-11731 3102  226
 16313.2451 1.522131-1 16313.9301 1.607149-1 16314.6151 1.699579-11731 3102  227
 16315.3000 1.800278-1 16315.9851 1.910292-1 16316.6701 2.030744-11731 3102  228
 16317.3551 2.162995-1 16318.0400 2.308550-1 16318.6251 2.444765-11731 3102  229
 16319.2101 2.593209-1 16319.7951 2.755321-1 16320.3800 2.932628-11731 3102  230
 16320.9651 3.126950-1 16321.5501 3.340155-1 16322.1351 3.574436-11731 3102  231
 16322.7200 3.832068-1 16323.1863 4.055913-1 16323.6526 4.297540-11731 3102  232
 16324.1189 4.558445-1 16324.5850 4.840011-1 16325.0514 5.143876-11731 3102  233
 16325.5176 5.471399-1 16325.9838 5.824160-1 16326.4500 6.203461-11731 3102  234
 16327.0633 6.745179-1 16327.6764 7.337644-1 16328.2895 7.982927-11731 3102  235
 16328.9026 8.681895-1 16329.5157 9.434533-1 16330.0713 1.016151+01731 3102  236
 16330.7739 1.113794+0 16331.4764 1.217081+0 16332.5300 1.379982+01731 3102  237
 16334.6301 1.711308+0 16335.3300 1.815313+0 16336.0601 1.915666+01731 3102  238
 16336.7900 2.004671+0 16337.5201 2.079438+0 16338.0676 2.124600+01731 3102  239
 16338.6876 2.163169+0 16339.3439 2.188382+0 16340.0000 2.196800+01731 3102  240
 16340.5701 2.190274+0 16341.1401 2.171031+0 16341.7170 2.139052+01731 3102  241
 16342.3076 2.094052+0 16342.8983 2.037694+0 16343.4889 1.971282+01731 3102  242
 16344.2763 1.869634+0 16345.0201 1.763002+0 16346.0701 1.601303+01731 3102  243
 16347.8213 1.323891+0 16348.8751 1.163951+0 16349.5776 1.063465+01731 3102  244
 16350.2800 9.690765-1 16350.8933 8.921299-1 16351.5064 8.205207-11731 3102  245
 16352.1195 7.542876-1 16352.7326 6.933782-1 16353.3457 6.376144-11731 3102  246
 16353.7832 6.008458-1 16354.2495 5.642972-1 16354.7158 5.303391-11731 3102  247
 16355.1820 4.988257-1 16355.6483 4.696050-1 16356.1145 4.425269-11731 3102  248
 16356.5808 4.174451-1 16357.0470 3.942147-1 16357.5726 3.700690-11731 3102  249
 16358.1576 3.455212-1 16358.7426 3.231916-1 16359.3276 3.028563-11731 3102  250
 16359.9126 2.843103-1 16360.4976 2.673696-1 16361.0826 2.518696-11731 3102  251
 16361.6676 2.376619-1 16362.3026 2.235475-1 16362.9876 2.096814-11731 3102  252
 16363.6726 1.970678-1 16364.3576 1.855635-1 16365.0426 1.750436-11731 3102  253
 16365.7276 1.654000-1 16366.4126 1.565389-1 16367.0976 1.483782-11731 3102  254
 16367.9145 1.394617-1 16368.8633 1.300884-1 16369.8120 1.216389-11731 3102  255
 16370.7608 1.139950-1 16371.7095 1.070566-1 16372.6583 1.007389-11731 3102  256
 16373.6070 9.496973-2 16374.5557 8.968686-2 16375.5413 8.465597-21731 3102  257
 16376.5639 7.987481-2 16377.5864 7.549077-2 16378.6089 7.146076-21731 3102  258
 16379.6314 6.774731-2 16380.6539 6.431794-2 16382.1876 5.964569-21731 3102  259
 16383.2100 5.681010-2 16384.5238 5.345557-2 16385.8376 5.039169-21731 3102  260
 16387.1514 4.758537-2 16388.4650 4.500871-2 16389.7789 4.263687-21731 3102  261
 16391.0926 4.044900-2 16393.0632 3.747181-2 16394.5957 3.537953-21731 3102  262
 16396.3470 3.319770-2 16398.0983 3.121318-2 16399.8495 2.940284-21731 3102  263
 16401.6008 2.774673-2 16403.3520 2.622762-2 16405.1033 2.483058-21731 3102  264
 16406.8545 2.354270-2 16408.7888 2.223358-2 16410.9064 2.092230-21731 3102  265
 16413.0239 1.972422-2 16415.1414 1.862676-2 16417.2589 1.761894-21731 3102  266
 16419.3764 1.669124-2 16421.4939 1.583539-2 16424.6700 1.467079-21731 3102  267
 16427.2238 1.382578-2 16429.7776 1.305242-2 16432.3314 1.234279-21731 3102  268
 16434.8851 1.169000-2 16437.4389 1.108791-2 16441.2695 1.026862-21731 3102  269
 16445.1000 9.537216-3 16448.1476 9.010162-3 16451.1951 8.526129-31731 3102  270
 16454.2426 8.080508-3 16457.2900 7.669307-3 16461.8614 7.109579-31731 3102  271
 16466.4326 6.609740-3 16469.4800 6.305631-3 16473.7076 5.917830-31731 3102  272
 16477.9351 5.565472-3 16482.1626 5.244522-3 16486.3901 4.951017-31731 3102  273
 16490.6176 4.681471-3 16494.8451 4.433442-3 16499.0726 4.204881-31731 3102  274
 16503.3000 3.993868-3 16507.8863 3.782757-3 16512.4726 3.588293-31731 3102  275
 16517.0589 3.408764-3 16523.9383 3.164277-3 16530.8176 2.945870-31731 3102  276
 16537.6970 2.749917-3 16544.5751 2.573353-3 16551.4526 2.413730-31731 3102  277
 16558.3301 2.268967-3 16565.2076 2.137268-3 16572.0851 2.017112-31731 3102  278
 16578.9626 1.907185-3 16585.8401 1.806359-3 16595.0101 1.684411-31731 3102  279
 16604.1801 1.574943-3 16613.3500 1.476317-3 16621.2120 1.399481-31731 3102  280
 16629.0739 1.329076-3 16639.5564 1.243249-3 16650.0388 1.165915-31731 3102  281
 16660.5201 1.096028-3 16671.0001 1.032684-3 16681.4801 9.750885-41731 3102  282
 16691.9601 9.225662-4 16702.4401 8.745380-4 16712.9201 8.305062-41731 3102  283
 16723.4001 7.900400-4 16739.1200 7.352162-4 16754.8439 6.865254-41731 3102  284
 16770.5676 6.430724-4 16786.2901 6.041350-4 16802.0101 5.691138-41731 3102  285
 16817.7301 5.375058-4 16836.0726 5.043638-4 16855.7264 4.728296-41731 3102  286
 16875.3800 4.446692-4 16896.3400 4.178104-4 16917.3000 3.938399-41731 3102  287
 16938.2601 3.723617-4 16959.2200 3.530453-4 16980.1851 3.356137-41731 3102  288
 17001.1500 3.198251-4 17022.1100 3.054892-4 17043.0700 2.924330-41731 3102  289
 17074.5101 2.749686-4 17105.9551 2.595863-4 17137.4001 2.460736-41731 3102  290
 17168.8400 2.340621-4 17200.2876 2.234175-4 17226.4901 2.154085-41731 3102  291
 17273.6500 2.027469-4 17315.5800 1.930418-4 17357.5000 1.845741-41731 3102  292
 17399.4200 1.771535-4 17441.3500 1.706255-4 17483.2700 1.648641-41731 3102  293
 17525.1900 1.597641-4 17588.0801 1.532050-4 17650.9700 1.476321-41731 3102  294
 17713.8501 1.429968-4 17776.7350 1.391662-4 17842.7601 1.356065-41731 3102  295
 17915.0500 1.324486-4 18011.4400 1.291546-4 18107.8400 1.266863-41731 3102  296
 18204.2300 1.249005-4 18300.6200 1.236844-4 18397.0100 1.229526-41731 3102  297
 18517.5000 1.226154-4 18686.1900 1.230720-4 18830.7751 1.242180-41731 3102  298
 18975.3600 1.259048-4 19168.1400 1.290277-4 19360.9300 1.330474-41731 3102  299
 19505.5200 1.366377-4 19650.1000 1.407259-4 19794.6900 1.453240-41731 3102  300
 19939.2800 1.504541-4 20083.8700 1.561471-4 20228.4500 1.624424-41731 3102  301
 20373.0400 1.693888-4 20517.6300 1.770448-4 20652.5800 1.848928-41731 3102  302
 20787.5300 1.934880-4 20922.4700 2.029081-4 21057.4200 2.132459-41731 3102  303
 21211.6500 2.263198-4 21365.8800 2.409171-4 21520.1000 2.572563-41731 3102  304
 21635.7751 2.708722-4 21751.4400 2.856560-4 21867.1151 3.019900-41731 3102  305
 21982.7800 3.197947-4 22098.4551 3.395780-4 22214.1200 3.612543-41731 3102  306
 22329.7951 3.854992-4 22406.9051 4.030794-4 22484.0200 4.219845-41731 3102  307
 22561.1351 4.423488-4 22638.2451 4.643245-4 22715.3600 4.880842-41731 3102  308
 22792.4751 5.138239-4 22869.5851 5.417674-4 22908.1400 5.563954-41731 3102  309
 22985.2600 5.881073-4 23062.3700 6.227326-4 23139.4800 6.606361-41731 3102  310
 23216.6000 7.022413-4 23293.7100 7.480406-4 23370.8200 7.986111-41731 3102  311
 23447.9400 8.546326-4 23525.0500 9.168631-4 23597.3450 9.819724-41731 3102  312
 23645.5400 1.029232-3 23693.7401 1.080037-3 23742.9001 1.135930-31731 3102  313
 23793.0200 1.197507-3 23818.0800 1.229804-3 23879.7700 1.316251-31731 3102  314
 23941.4600 1.412069-3 23999.3001 1.512061-3 24049.4251 1.606921-31731 3102  315
 24095.6926 1.703200-3 24141.9600 1.807899-3 24188.2276 1.922958-31731 3102  316
 24234.4951 2.048666-3 24280.7626 2.187509-3 24327.0300 2.339999-31731 3102  317
 24373.2976 2.509420-3 24419.5651 2.696493-3 24450.4100 2.833067-31731 3102  318
 24481.2550 2.979895-3 24512.1000 3.138046-3 24542.9450 3.308568-31731 3102  319
 24573.7900 3.492787-3 24604.6351 3.692019-3 24635.4800 3.907916-31731 3102  320
 24666.3301 4.142165-3 24697.1800 4.396744-3 24728.0251 4.673873-31731 3102  321
 24758.8700 4.975913-3 24793.5651 5.348080-3 24828.2651 5.760263-31731 3102  322
 24862.9676 6.217124-3 24897.6700 6.723731-3 24932.3726 7.286341-31731 3102  323
 24967.0750 7.911674-3 25001.7751 8.606346-3 25036.4700 9.378006-31731 3102  324
 25059.6050 9.938821-3 25094.3076 1.085434-2 25129.0100 1.186397-21731 3102  325
 25163.7126 1.297047-2 25198.4150 1.417295-2 25236.9726 1.561600-21731 3102  326
 25283.2400 1.744621-2 25352.6400 2.023719-2 25383.4850 2.139305-21731 3102  327
 25414.3300 2.242716-2 25437.4650 2.308775-2 25460.6000 2.362058-21731 3102  328
 25483.7350 2.400698-2 25506.8700 2.423199-2 25526.9200 2.429328-21731 3102  329
 25551.5950 2.417960-2 25576.2700 2.388277-2 25603.2601 2.334460-21731 3102  330
 25630.2500 2.262548-2 25653.3851 2.188747-2 25676.5200 2.106207-21731 3102  331
 25711.2200 1.971516-2 25807.6100 1.581272-2 25838.4551 1.462973-21731 3102  332
 25869.3000 1.351401-2 25900.1450 1.247224-2 25930.9900 1.150827-21731 3102  333
 25961.8351 1.062165-2 25992.6800 9.809644-3 26023.5251 9.068607-31731 3102  334
 26054.3700 8.393380-3 26085.2150 7.779068-3 26116.0600 7.220174-31731 3102  335
 26146.9051 6.711873-3 26177.7500 6.249153-3 26208.5950 5.827769-31731 3102  336
 26239.4400 5.443461-3 26270.2850 5.092691-3 26301.1300 4.771961-31731 3102  337
 26331.9751 4.478407-3 26362.8200 4.209203-3 26393.6701 3.962028-31731 3102  338
 26424.5200 3.734709-3 26455.3651 3.525305-3 26486.2100 3.332166-31731 3102  339
 26517.0550 3.153674-3 26547.9000 2.988545-3 26578.7451 2.835483-31731 3102  340
 26609.5900 2.693467-3 26640.4351 2.561451-3 26686.7026 2.380754-31731 3102  341
 26732.9700 2.217334-3 26779.2376 2.070395-3 26825.5050 1.936834-31731 3102  342
 26871.7726 1.816085-3 26918.0400 1.705813-3 26964.3076 1.605692-31731 3102  343
 27010.5750 1.513918-3 27060.7001 1.423853-3 27118.5400 1.329373-31731 3102  344
 27164.8076 1.261232-3 27211.0750 1.199656-3 27241.9200 1.160167-31731 3102  345
 27292.0400 1.102247-3 27342.1600 1.050287-3 27390.3600 1.006003-31731 3102  346
 27450.6076 9.591254-4 27486.7500 9.364874-4 27522.9001 9.193522-41731 3102  347
 27554.3200 9.100466-4 27573.6900 9.079995-4 27597.3600 9.110480-41731 3102  348
 27615.1126 9.183854-4 27633.9426 9.327733-4 27646.8550 9.476840-41731 3102  349
 27659.7676 9.688610-4 27669.4520 9.898353-4 27678.5988 1.014769-31731 3102  350
 27687.4770 1.044969-3 27696.3550 1.082545-3 27702.2739 1.112738-31731 3102  351
 27708.1926 1.148197-3 27714.1113 1.190025-3 27720.0300 1.239566-31731 3102  352
 27725.6795 1.295693-3 27731.3289 1.362486-3 27735.0950 1.414211-31731 3102  353
 27738.8614 1.472875-3 27742.6276 1.539774-3 27746.3938 1.616498-31731 3102  354
 27750.1600 1.704985-3 27752.8501 1.776719-3 27755.5401 1.856776-31731 3102  355
 27758.2301 1.946472-3 27760.9201 2.047387-3 27763.6101 2.161455-31731 3102  356
 27766.3001 2.291026-3 27768.3177 2.400115-3 27770.3351 2.521030-31731 3102  357
 27772.5545 2.669846-3 27774.3033 2.800568-3 27776.0520 2.944974-31731 3102  358
 27777.8008 3.105073-3 27779.5495 3.283265-3 27781.2983 3.482433-31731 3102  359
 27783.0470 3.706058-3 27784.3586 3.892355-3 27785.6700 4.096902-31731 3102  360
 27786.8813 4.304247-3 27788.0926 4.531642-3 27789.3039 4.781859-31731 3102  361
 27790.5151 5.058116-3 27791.7264 5.364341-3 27792.9376 5.705141-31731 3102  362
 27794.1488 6.086216-3 27795.0573 6.402563-3 27795.8307 6.695419-31731 3102  363
 27796.7720 7.084902-3 27797.7133 7.515813-3 27798.6545 7.994693-31731 3102  364
 27799.5958 8.529552-3 27800.3017 8.973292-3 27801.0076 9.458900-31731 3102  365
 27801.7136 9.992519-3 27802.4195 1.058090-2 27803.2263 1.133147-21731 3102  366
 27803.8989 1.203100-2 27804.5714 1.280881-2 27805.2439 1.367733-21731 3102  367
 27805.7483 1.439703-2 27806.2526 1.518309-2 27806.7570 1.604378-21731 3102  368
 27807.2614 1.698798-2 27807.7658 1.802615-2 27808.2700 1.916934-21731 3102  369
 27808.8351 2.059153-2 27809.2589 2.176757-2 27809.6826 2.304745-21731 3102  370
 27810.1064 2.444158-2 27810.5301 2.596016-2 27810.9539 2.761623-21731 3102  371
 27811.3776 2.942065-2 27811.8014 3.138718-2 27812.2251 3.352893-21731 3102  372
 27812.6489 3.586089-2 27813.0132 3.802898-2 27813.4595 4.090438-21731 3102  373
 27813.9058 4.403825-2 27814.3520 4.744808-2 27814.7983 5.115131-21731 3102  374
 27815.2445 5.516440-2 27815.6908 5.950236-2 27816.1370 6.417895-21731 3102  375
 27816.5338 6.863281-2 27817.0551 7.491469-2 27817.5764 8.169769-21731 3102  376
 27818.0976 8.898345-2 27818.6189 9.676931-2 27819.1400 1.050393-11731 3102  377
 27819.7376 1.150915-1 27820.3351 1.256994-1 27821.2313 1.424972-11731 3102  378
 27822.6864 1.712120-1 27824.1751 2.006298-1 27824.9700 2.154722-11731 3102  379
 27825.7651 2.291598-1 27826.5600 2.412619-1 27827.1564 2.490589-11731 3102  380
 27827.7526 2.555862-1 27828.3751 2.609086-1 27829.0501 2.648224-11731 3102  381
 27829.7251 2.667045-1 27830.0000 2.668753-1 27830.6300 2.659601-11731 3102  382
 27831.2600 2.632484-1 27831.8789 2.588956-1 27832.4976 2.529673-11731 3102  383
 27833.1088 2.456880-1 27833.7051 2.373700-1 27834.5000 2.246871-11731 3102  384
 27835.2951 2.105620-1 27836.5551 1.862802-1 27838.4776 1.480755-11731 3102  385
 27839.2689 1.329509-1 27840.0600 1.185783-1 27840.7226 1.072564-11731 3102  386
 27841.3851 9.667188-2 27841.8820 8.924537-2 27842.3788 8.227453-21731 3102  387
 27842.9138 7.527928-2 27843.3214 7.030472-2 27843.7289 6.563192-21731 3102  388
 27844.1364 6.125426-2 27844.5439 5.716290-2 27844.9514 5.334796-21731 3102  389
 27845.3589 4.979864-2 27845.7663 4.650284-2 27846.2132 4.316439-21731 3102  390
 27846.6995 3.983997-2 27847.1858 3.681508-2 27847.6720 3.406701-21731 3102  391
 27848.1583 3.157327-2 27848.6445 2.931230-2 27849.1308 2.726365-21731 3102  392
 27849.6170 2.540775-2 27850.0257 2.398310-2 27850.5226 2.240258-21731 3102  393
 27851.0195 2.097188-2 27851.5164 1.967587-2 27852.0133 1.850009-21731 3102  394
 27852.5101 1.743215-2 27853.0071 1.645969-2 27853.5039 1.557320-21731 3102  395
 27854.0008 1.476307-2 27854.4976 1.402128-2 27855.1600 1.312589-21731 3102  396
 27855.7808 1.237186-2 27856.4014 1.168951-2 27857.0220 1.106964-21731 3102  397
 27857.6426 1.050465-2 27858.4700 9.825379-3 27859.2976 9.218840-31731 3102  398
 27860.1251 8.674555-3 27860.9526 8.183687-3 27861.7800 7.739113-31731 3102  399
 27862.6183 7.329732-3 27863.4564 6.956538-3 27864.5739 6.507665-31731 3102  400
 27865.6914 6.106780-3 27866.8089 5.746954-3 27867.9264 5.422530-31731 3102  401
 27869.0439 5.128843-3 27870.1613 4.861992-3 27871.4857 4.575996-31731 3102  402
 27873.0170 4.280645-3 27874.5483 4.017725-3 27876.0795 3.782544-31731 3102  403
 27877.6108 3.571247-3 27879.1420 3.380642-3 27880.6733 3.208065-31731 3102  404
 27882.2045 3.051270-3 27884.0045 2.884570-3 27886.0733 2.713328-31731 3102  405
 27888.1420 2.560762-3 27890.2108 2.424210-3 27892.2795 2.301476-31731 3102  406
 27894.3483 2.190733-3 27896.4170 2.090454-3 27898.4857 1.999342-31731 3102  407
 27901.3826 1.885088-3 27904.1764 1.787526-3 27906.9701 1.700492-31731 3102  408
 27909.7639 1.622468-3 27912.5576 1.552229-3 27916.2826 1.468947-31731 3102  409
 27920.0076 1.395745-3 27923.7326 1.331039-3 27927.4576 1.273537-31731 3102  410
 27932.2163 1.208881-3 27936.5608 1.157095-3 27940.9051 1.111129-31731 3102  411
 27946.6976 1.057460-3 27952.4901 1.010981-3 27958.2826 9.702939-41731 3102  412
 27964.0751 9.344011-4 27972.7638 8.879882-4 27982.2813 8.453289-41731 3102  413
 27992.2133 8.078932-4 28002.1450 7.760825-4 28012.0770 7.487696-41731 3102  414
 28022.0088 7.251068-4 28035.2513 6.976520-4 28048.4939 6.741019-41731 3102  415
 28068.3576 6.443671-4 28089.8763 6.177152-4 28114.7051 5.920913-41731 3102  416
 28147.8100 5.639641-4 28174.2951 5.447704-4 28200.7800 5.278485-41731 3102  417
 28250.4376 5.003998-4 28286.8526 4.828907-4 28346.4400 4.576679-41731 3102  418
 28392.7900 4.401920-4 28439.1300 4.242045-4 28518.5851 3.995865-41731 3102  419
 28604.6600 3.757496-4 28692.3851 3.541554-4 28776.8000 3.352294-41731 3102  420
 28861.2200 3.180659-4 28955.5700 3.004505-4 29054.8851 2.836605-41731 3102  421
 29154.2000 2.682296-4 29267.4201 2.523262-4 29380.6400 2.377617-41731 3102  422
 29456.1200 2.288149-4 29561.3900 2.171977-4 29666.6700 2.064844-41731 3102  423
 29771.9400 1.965856-4 29877.2100 1.874217-4 30009.6300 1.768268-41731 3102  424
 30142.0500 1.671566-4 30274.4700 1.583088-4 30406.8900 1.501933-41731 3102  425
 30524.0900 1.435599-4 30699.8750 1.345136-4 30875.6600 1.262972-41731 3102  426
 31049.4650 1.190312-4 31223.2600 1.123891-4 31397.0651 1.064089-41731 3102  427
 31570.8700 1.009176-4 31744.6650 9.594893-5 31968.1300 9.014031-51731 3102  428
 32133.6500 8.625222-5 32299.1800 8.266970-5 32464.7000 7.936460-51731 3102  429
 32712.9901 7.489750-5 32961.2800 7.087923-5 33209.5650 6.733996-51731 3102  430
 33457.8500 6.414924-5 33706.1401 6.133493-5 33954.4300 5.879794-51731 3102  431
 34119.9500 5.727256-5 34451.0000 5.455761-5 34771.3651 5.233372-51731 3102  432
 35091.7300 5.041799-5 35412.0900 4.884373-5 35732.4600 4.752691-51731 3102  433
 36052.8201 4.650404-5 36373.1900 4.570969-5 36693.5500 4.518487-51731 3102  434
 37013.9100 4.487704-5 37227.4900 4.481360-5 37547.8526 4.493477-51731 3102  435
 37868.2200 4.528335-5 38188.5851 4.592456-5 38508.9500 4.682331-51731 3102  436
 38722.5200 4.760361-5 38936.1000 4.853275-5 39149.6800 4.962273-51731 3102  437
 39363.2500 5.088785-5 39576.8300 5.234508-5 39790.4000 5.401464-51731 3102  438
 40003.9800 5.592057-5 40217.5600 5.809166-5 40431.1300 6.056260-51731 3102  439
 40644.7100 6.337562-5 40858.2900 6.658295-5 41071.8600 7.024888-51731 3102  440
 41232.0451 7.336736-5 41424.4300 7.756351-5 41563.4200 8.100246-51731 3102  441
 41737.1551 8.592864-5 41868.3300 9.031147-5 41949.1200 9.348597-51731 3102  442
 42002.9800 9.595818-5 42048.7600 9.842054-5 42094.5400 1.013881-41731 3102  443
 42137.1176 1.049581-4 42159.0788 1.073234-4 42182.3850 1.104758-41731 3102  444
 42197.9226 1.130407-4 42213.4600 1.162361-4 42228.1651 1.200563-41731 3102  445
 42239.1939 1.236346-4 42250.2226 1.280558-4 42257.5751 1.316369-41731 3102  446
 42264.9276 1.358867-4 42272.2800 1.409932-4 42279.3245 1.469370-41731 3102  447
 42284.0208 1.516310-4 42288.7170 1.570548-4 42293.4133 1.633737-41731 3102  448
 42298.1095 1.708110-4 42301.6317 1.773019-4 42305.1538 1.847565-41731 3102  449
 42308.6760 1.933834-4 42311.2551 2.005945-4 42314.0651 2.094808-41731 3102  450
 42316.8751 2.196448-4 42319.6851 2.313511-4 42321.7926 2.413440-41731 3102  451
 42323.9001 2.525729-4 42326.0077 2.652592-4 42328.1151 2.796768-41731 3102  452
 42330.2226 2.961726-4 42331.6276 3.085372-4 42333.0876 3.227447-41731 3102  453
 42334.6026 3.391855-4 42336.1176 3.576579-4 42337.6326 3.785531-41731 3102  454
 42338.7689 3.961217-4 42339.9051 4.156346-4 42341.0414 4.374877-41731 3102  455
 42342.1776 4.622307-4 42343.3139 4.906752-4 42344.0713 5.122752-41731 3102  456
 42344.7195 5.328728-4 42345.5276 5.619765-4 42346.0664 5.839964-41731 3102  457
 42346.6051 6.085985-4 42347.1439 6.363349-4 42347.6826 6.678685-41731 3102  458
 42348.2214 7.040450-4 42348.6255 7.348381-4 42349.0295 7.693442-41731 3102  459
 42349.4336 8.081861-4 42349.8376 8.520588-4 42350.2418 9.018352-41731 3102  460
 42350.6458 9.584442-4 42351.0499 1.023036-3 42351.3193 1.071164-31731 3102  461
 42351.5886 1.123837-3 42351.8580 1.181527-3 42352.1274 1.244760-31731 3102  462
 42352.3967 1.314106-3 42352.6661 1.390173-3 42352.9354 1.473636-31731 3102  463
 42353.2385 1.577348-3 42353.4913 1.672526-3 42353.7438 1.776327-31731 3102  464
 42353.9966 1.889673-3 42354.2492 2.013255-3 42354.5019 2.148071-31731 3102  465
 42354.7545 2.295042-3 42355.0072 2.455276-3 42355.2599 2.629790-31731 3102  466
 42355.5125 2.819850-3 42355.7651 3.026570-3 42356.0178 3.251661-31731 3102  467
 42356.2705 3.496197-3 42356.5232 3.761874-3 42356.7758 4.050184-31731 3102  468
 42357.0284 4.363009-3 42357.2811 4.702022-3 42357.5338 5.069256-31731 3102  469
 42357.7863 5.466395-3 42358.0391 5.896081-3 42358.2917 6.359949-31731 3102  470
 42358.4600 6.689353-3 42358.7288 7.251010-3 42358.9976 7.858822-31731 3102  471
 42359.2664 8.516220-3 42359.5351 9.226046-3 42359.8039 9.992243-31731 3102  472
 42360.0726 1.081763-2 42360.3414 1.170622-2 42360.6101 1.266115-21731 3102  473
 42360.8789 1.368712-2 42361.1476 1.478699-2 42361.4164 1.596523-21731 3102  474
 42361.6851 1.722512-2 42361.9539 1.857169-2 42362.2226 2.000783-21731 3102  475
 42362.4913 2.153832-2 42362.7600 2.316626-2 42363.0892 2.530048-21731 3102  476
 42363.4183 2.759378-2 42363.7473 3.005429-2 42364.0764 3.268775-21731 3102  477
 42364.4054 3.550159-2 42364.7345 3.850071-2 42365.0636 4.169124-21731 3102  478
 42365.3926 4.507577-2 42365.8313 4.990087-2 42366.2700 5.508649-21731 3102  479
 42366.7745 6.150290-2 42367.2789 6.840208-2 42367.7833 7.578116-21731 3102  480
 42368.2876 8.362607-2 42368.7920 9.191919-2 42369.4976 1.042158-11731 3102  481
 42370.3039 1.191337-1 42371.3288 1.391080-1 42373.5350 1.832816-11731 3102  482
 42374.4801 2.012946-1 42375.2900 2.155966-1 42375.9726 2.265228-11731 3102  483
 42376.5900 2.353157-1 42377.2801 2.437182-1 42377.8201 2.491273-11731 3102  484
 42378.4400 2.539659-1 42379.1151 2.574664-1 42379.8100 2.590644-11731 3102  485
 42380.0000 2.591410-1 42380.6700 2.581726-1 42381.3300 2.553542-11731 3102  486
 42381.8850 2.515954-1 42382.5900 2.450882-1 42383.2200 2.377520-11731 3102  487
 42383.8126 2.296700-1 42384.4950 2.191188-1 42385.2751 2.057047-11731 3102  488
 42386.1600 1.891681-1 42387.7300 1.579586-1 42389.2076 1.285049-11731 3102  489
 42390.0201 1.130098-1 42390.6601 1.013756-1 42391.3001 9.035139-21731 3102  490
 42391.7801 8.252799-2 42392.2600 7.511456-2 42392.6538 6.934638-21731 3102  491
 42393.0476 6.387111-2 42393.4414 5.868988-2 42393.8351 5.380542-21731 3102  492
 42394.2289 4.921350-2 42394.6226 4.491326-2 42395.0163 4.089767-21731 3102  493
 42395.4100 3.716124-2 42395.7795 3.389960-2 42396.1489 3.086898-21731 3102  494
 42396.5183 2.805912-2 42396.8876 2.546162-2 42397.2570 2.306574-21731 3102  495
 42397.6264 2.086222-2 42397.8726 1.949493-2 42398.1189 1.820512-21731 3102  496
 42398.3651 1.699050-2 42398.6114 1.584688-2 42398.8576 1.477226-21731 3102  497
 42399.1038 1.376295-2 42399.3500 1.281654-2 42399.6695 1.167661-21731 3102  498
 42399.9091 1.088369-2 42400.1486 1.014127-2 42400.3882 9.446468-31731 3102  499
 42400.6276 8.797330-3 42400.8672 8.190423-3 42401.1067 7.624451-31731 3102  500
 42401.3463 7.096700-3 42401.5858 6.605244-3 42401.8253 6.147690-31731 3102  501
 42402.0648 5.722224-3 42402.3044 5.326781-3 42402.5439 4.959859-31731 3102  502
 42402.7835 4.619185-3 42403.0230 4.303563-3 42403.2625 4.011105-31731 3102  503
 42403.5020 3.740406-3 42403.7416 3.489897-3 42403.9811 3.258364-31731 3102  504
 42404.2206 3.044395-3 42404.4600 2.846922-3 42404.6817 2.677649-31731 3102  505
 42404.9032 2.520611-3 42405.1248 2.374881-3 42405.3463 2.239780-31731 3102  506
 42405.5680 2.114447-3 42405.7895 1.998326-3 42406.0111 1.890691-31731 3102  507
 42406.2326 1.791008-3 42406.4542 1.698593-3 42406.7866 1.572613-31731 3102  508
 42407.1189 1.460355-3 42407.4513 1.360211-3 42407.7836 1.270938-31731 3102  509
 42408.1159 1.191261-3 42408.4483 1.120116-3 42408.7807 1.056511-31731 3102  510
 42409.1130 9.996041-4 42409.4454 9.485999-4 42409.7776 9.028343-41731 3102  511
 42410.1100 8.616426-4 42410.4423 8.245324-4 42410.8855 7.805468-41731 3102  512
 42411.3285 7.419522-4 42411.8454 7.026356-4 42412.2885 6.730348-41731 3102  513
 42412.7313 6.466171-4 42413.3220 6.155037-4 42413.9126 5.882658-41731 3102  514
 42414.5033 5.641634-4 42415.0939 5.426323-4 42415.9798 5.141877-41731 3102  515
 42416.8658 4.893916-4 42417.7517 4.674434-4 42418.6376 4.477815-41731 3102  516
 42419.8188 4.244233-4 42421.0000 4.037244-4 42422.4767 3.808699-41731 3102  517
 42423.9533 3.607737-4 42425.4299 3.429588-4 42426.9064 3.270680-41731 3102  518
 42428.3829 3.128175-4 42429.8595 2.999809-4 42431.8283 2.847457-41731 3102  519
 42433.7970 2.713358-4 42435.7657 2.594655-4 42438.4232 2.454821-41731 3102  520
 42440.9330 2.340641-4 42443.4426 2.240821-4 42445.9524 2.153008-41731 3102  521
 42448.4620 2.075337-4 42451.8083 1.984970-4 42455.1545 1.907130-41731 3102  522
 42458.5008 1.839632-4 42461.8470 1.780764-4 42466.8670 1.705717-41731 3102  523
 42471.8873 1.643477-4 42476.9076 1.591317-4 42483.6014 1.533937-41731 3102  524
 42490.2951 1.487363-4 42496.9889 1.449209-4 42507.0295 1.404018-41731 3102  525
 42517.0700 1.369676-4 42527.7014 1.342036-4 42538.3326 1.320721-41731 3102  526
 42552.5076 1.299592-4 42573.7700 1.279129-4 42597.3951 1.267269-41731 3102  527
 42621.0201 1.261809-4 42636.7700 1.260876-4 42674.5664 1.264943-41731 3102  528
 42737.5600 1.283731-4 42806.1450 1.314253-4 42874.7300 1.350128-41731 3102  529
 42961.4900 1.402655-4 43048.2600 1.461453-4 43135.0300 1.526184-41731 3102  530
 43221.7900 1.596960-4 43308.5600 1.674147-4 43395.3300 1.758285-41731 3102  531
 43482.0900 1.850048-4 43563.0700 1.943314-4 43644.0600 2.044758-41731 3102  532
 43725.0400 2.155296-4 43806.0200 2.276037-4 43898.5700 2.428081-41731 3102  533
 43991.1200 2.597201-4 44083.6700 2.785839-4 44153.0901 2.942432-41731 3102  534
 44222.5050 3.112881-4 44291.9176 3.300366-4 44361.3300 3.505227-41731 3102  535
 44430.7426 3.731938-4 44500.1551 3.981086-4 44569.5676 4.258647-41731 3102  536
 44638.9800 4.565672-4 44685.2550 4.790449-4 44731.5300 5.032823-41731 3102  537
 44777.8051 5.294580-4 44824.0800 5.577918-4 44870.3550 5.885162-41731 3102  538
 44916.6300 6.219166-4 44962.9051 6.582988-4 45009.1800 6.980382-41731 3102  539
 45055.4601 7.415479-4 45101.7400 7.893185-4 45148.0151 8.419233-41731 3102  540
 45194.2900 8.998552-4 45240.5650 9.643166-4 45286.8400 1.035870-31731 3102  541
 45330.2201 1.110466-3 45373.6050 1.193376-3 45402.5300 1.253987-31731 3102  542
 45432.6050 1.322055-3 45462.6800 1.395855-3 45499.7000 1.495428-31731 3102  543
 45536.7200 1.605662-3 45569.1151 1.712370-3 45601.5100 1.829909-31731 3102  544
 45629.2751 1.940629-3 45657.0401 2.061514-3 45684.8051 2.193867-31731 3102  545
 45712.5701 2.339073-3 45740.3351 2.498866-3 45768.1001 2.675108-31731 3102  546
 45795.8651 2.870136-3 45823.6300 3.086484-3 45851.3951 3.327345-31731 3102  547
 45879.1601 3.596212-3 45905.7688 3.884239-3 45930.0650 4.176841-31731 3102  548
 45954.3613 4.501001-3 45978.6576 4.862139-3 46002.9539 5.265963-31731 3102  549
 46019.1513 5.561519-3 46035.3476 5.880526-3 46051.5426 6.225255-31731 3102  550
 46067.7376 6.598162-3 46083.9326 7.001951-3 46100.1288 7.439608-31731 3102  551
 46116.3264 7.914346-3 46132.5239 8.429577-3 46148.7213 8.988983-31731 3102  552
 46164.9176 9.596388-3 46181.1126 1.025578-2 46197.3076 1.097125-21731 3102  553
 46213.5026 1.174668-2 46229.6988 1.258574-2 46245.8964 1.349135-21731 3102  554
 46262.0939 1.446530-2 46278.2913 1.550789-2 46295.6451 1.669869-21731 3102  555
 46314.1551 1.804594-2 46351.1751 2.091108-2 46382.9901 2.339556-21731 3102  556
 46405.5501 2.503542-2 46420.5900 2.601644-2 46437.0176 2.693168-21731 3102  557
 46449.3383 2.748084-2 46461.6589 2.789704-2 46473.9795 2.816729-21731 3102  558
 46488.1500 2.828851-2 46490.0000 2.828870-2 46501.2801 2.821037-21731 3102  559
 46512.5601 2.800223-2 46527.6001 2.753174-2 46542.6401 2.686062-21731 3102  560
 46558.8363 2.594763-2 46576.1889 2.479549-2 46602.2176 2.285224-21731 3102  561
 46656.5900 1.859585-2 46675.1001 1.721484-2 46693.6100 1.591073-21731 3102  562
 46712.1201 1.469150-2 46730.6300 1.356164-2 46749.1401 1.252139-21731 3102  563
 46767.6500 1.156815-2 46786.1601 1.069743-2 46804.6701 9.903785-31731 3102  564
 46823.1801 9.181239-3 46841.6900 8.523766-3 46860.2001 7.925477-31731 3102  565
 46878.7101 7.380805-3 46897.2201 6.884554-3 46915.7300 6.431964-31731 3102  566
 46934.2426 6.018671-3 46952.7550 5.640880-3 46971.2676 5.294862-31731 3102  567
 46989.7800 4.977530-3 47008.2901 4.686121-3 47026.8000 4.418065-31731 3102  568
 47045.3101 4.171103-3 47063.8200 3.943223-3 47082.3301 3.732619-31731 3102  569
 47100.8400 3.537690-3 47128.6051 3.271604-3 47156.3701 3.033291-31731 3102  570
 47184.1351 2.819268-3 47211.9000 2.626382-3 47239.6651 2.452106-31731 3102  571
 47267.4301 2.294133-3 47295.1951 2.150608-3 47322.9601 2.019819-31731 3102  572
 47350.7251 1.900385-3 47375.0201 1.804178-3 47405.1001 1.694857-31731 3102  573
 47435.1801 1.594933-3 47465.2601 1.504131-3 47497.0751 1.415455-31731 3102  574
 47530.6251 1.329723-3 47562.1501 1.256300-3 47591.6501 1.192880-31731 3102  575
 47635.3201 1.107374-3 47664.2400 1.055724-3 47701.8400 9.941026-41731 3102  576
 47739.4400 9.373002-4 47785.7150 8.739223-4 47831.9900 8.167629-41731 3102  577
 47878.2651 7.650341-4 47924.5400 7.180682-4 47970.8150 6.753171-41731 3102  578
 48017.0900 6.362843-4 48063.3651 6.005654-4 48109.6400 5.677890-41731 3102  579
 48155.9151 5.376524-4 48202.1900 5.098738-4 48248.4650 4.842233-41731 3102  580
 48294.7400 4.604836-4 48341.0200 4.384759-4 48410.4376 4.084317-41731 3102  581
 48479.8500 3.812993-4 48549.2626 3.569576-4 48618.6750 3.348302-41731 3102  582
 48688.0876 3.148467-4 48757.5000 2.965773-4 48826.9126 2.799794-41731 3102  583
 48896.3250 2.647286-4 48977.3076 2.485763-4 49081.4300 2.299921-41731 3102  584
 49173.9800 2.152472-4 49254.9600 2.035503-4 49335.9400 1.928517-41731 3102  585
 49416.9300 1.830409-4 49497.9100 1.740266-4 49584.6700 1.651593-41731 3102  586
 49671.4400 1.570250-4 49758.2100 1.495496-4 49844.9700 1.426679-41731 3102  587
 49931.7400 1.363224-4 50018.5100 1.304628-4 50148.6551 1.225227-41731 3102  588
 50249.8850 1.169570-4 50307.7300 1.139149-4 50423.4200 1.083794-41731 3102  589
 50539.1100 1.033676-4 50654.8000 9.882810-5 50770.4800 9.471665-51731 3102  590
 50886.1700 9.099567-5 51001.8600 8.763324-5 51117.5500 8.460236-51731 3102  591
 51233.2400 8.188045-5 51348.9300 7.944891-5 51464.6200 7.729283-51731 3102  592
 51580.3100 7.540080-5 51695.9900 7.376474-5 51811.6800 7.237994-51731 3102  593
 51927.3700 7.124516-5 52043.0600 7.036277-5 52158.7500 6.973913-51731 3102  594
 52317.8201 6.932328-5 52361.2000 6.930386-5 52491.3501 6.952171-51731 3102  595
 52621.5000 7.013282-5 52737.1900 7.108596-5 52852.8800 7.246601-51731 3102  596
 52968.5700 7.433500-5 53074.5451 7.657008-5 53145.1900 7.836160-51731 3102  597
 53215.8351 8.043677-5 53286.4851 8.283227-5 53357.1350 8.559193-51731 3102  598
 53392.4600 8.709037-5 53463.1100 9.049298-5 53533.7500 9.440992-51731 3102  599
 53597.7900 9.847704-5 53661.8300 1.031125-4 53714.2651 1.073966-41731 3102  600
 53766.7000 1.121910-4 53819.1350 1.175644-4 53871.5700 1.236060-41731 3102  601
 53924.0050 1.304192-4 53976.4400 1.381144-4 54015.7651 1.445646-41731 3102  602
 54055.0900 1.516955-4 54094.4151 1.595957-4 54133.7400 1.683596-41731 3102  603
 54173.0701 1.781342-4 54212.4000 1.890521-4 54251.7251 2.013271-41731 3102  604
 54291.0500 2.151383-4 54320.5439 2.266953-4 54350.0376 2.394366-41731 3102  605
 54379.5313 2.535267-4 54409.0250 2.691512-4 54438.5188 2.865576-41731 3102  606
 54466.7026 3.050975-4 54494.2314 3.253136-4 54521.7600 3.479636-41731 3102  607
 54545.3551 3.696136-4 54568.9501 3.936328-4 54592.5451 4.204148-41731 3102  608
 54616.1401 4.504075-4 54639.7351 4.841717-4 54655.4651 5.090912-41731 3102  609
 54671.1951 5.360554-4 54686.9251 5.655803-4 54702.6551 5.980051-41731 3102  610
 54718.3863 6.336421-4 54734.1189 6.729407-4 54749.8514 7.164447-41731 3102  611
 54765.5838 7.647906-4 54781.3151 8.187828-4 54793.1126 8.635388-41731 3102  612
 54804.9100 9.124781-4 54816.7076 9.661749-4 54828.5051 1.025277-31731 3102  613
 54840.4338 1.091347-3 54852.6251 1.166349-3 54864.8164 1.250127-31731 3102  614
 54877.0076 1.344459-3 54885.1351 1.414073-3 54893.2626 1.489759-31731 3102  615
 54901.3900 1.572292-3 54909.6476 1.664179-3 54917.9051 1.765253-31731 3102  616
 54926.1626 1.876735-3 54934.4201 2.000168-3 54942.6776 2.137426-31731 3102  617
 54950.6738 2.285581-3 54958.5395 2.448266-3 54966.4051 2.630467-31731 3102  618
 54971.6489 2.764374-3 54976.8926 2.909538-3 54982.1363 3.067263-31731 3102  619
 54987.3800 3.239024-3 54992.0988 3.406990-3 54996.8176 3.589093-31731 3102  620
 55001.5364 3.786927-3 55006.2550 4.002284-3 55010.9739 4.237213-31731 3102  621
 55015.6926 4.494009-3 55020.4113 4.775282-3 55025.1300 5.083945-31731 3102  622
 55030.2433 5.453177-3 55035.3564 5.863217-3 55040.4695 6.319562-31731 3102  623
 55045.5826 6.828362-3 55050.6957 7.396328-3 55055.0213 7.928256-31731 3102  624
 55058.9533 8.456634-3 55062.8850 9.031133-3 55066.8170 9.654893-31731 3102  625
 55070.7488 1.033044-2 55075.0745 1.113545-2 55080.1876 1.217070-21731 3102  626
 55085.3008 1.329201-2 55092.1183 1.489830-2 55104.2051 1.786120-21731 3102  627
 55109.5526 1.908543-2 55113.1176 1.981953-2 55116.6826 2.046033-21731 3102  628
 55120.2476 2.098516-2 55123.8126 2.137435-2 55127.3776 2.161303-21731 3102  629
 55130.8400 2.169251-2 55134.4195 2.161520-2 55137.9989 2.138134-21731 3102  630
 55141.5783 2.100335-2 55145.1576 2.049928-2 55149.9300 1.966942-21731 3102  631
 55155.6320 1.851479-2 55170.8370 1.520308-2 55176.5388 1.405265-21731 3102  632
 55180.3400 1.334317-2 55185.5826 1.244959-2 55189.5145 1.184638-21731 3102  633
 55193.4464 1.130042-2 55197.3783 1.081024-2 55201.3101 1.037368-21731 3102  634
 55205.2421 9.988066-3 55209.1739 9.650639-3 55213.1058 9.358576-31731 3102  635
 55217.0376 9.109198-3 55222.2800 8.838811-3 55227.5251 8.634576-31731 3102  636
 55232.7700 8.492253-3 55238.0151 8.408319-3 55243.2600 8.380140-31731 3102  637
 55248.9301 8.410355-3 55254.6001 8.502546-3 55260.2701 8.656859-31731 3102  638
 55265.9401 8.874739-3 55271.6101 9.158818-3 55276.0413 9.429271-31731 3102  639
 55281.1239 9.794963-3 55286.2064 1.022401-2 55291.2888 1.072159-21731 3102  640
 55296.6538 1.132800-2 55300.8895 1.187104-2 55305.1251 1.247583-21731 3102  641
 55309.3608 1.314758-2 55313.5963 1.389188-2 55317.8320 1.471479-21731 3102  642
 55322.0676 1.562256-2 55326.3033 1.662147-2 55330.5389 1.771745-21731 3102  643
 55334.7745 1.891587-2 55339.0100 2.022076-2 55343.2458 2.163428-21731 3102  644
 55347.4814 2.315513-2 55353.1289 2.533950-2 55358.7763 2.767413-21731 3102  645
 55372.1864 3.344300-2 55377.4795 3.557639-2 55382.7726 3.745771-21731 3102  646
 55386.3013 3.850953-2 55389.8300 3.935766-2 55393.4751 3.998731-21731 3102  647
 55397.1201 4.034107-2 55399.5500 4.041564-2 55403.3326 4.027082-21731 3102  648
 55407.1151 3.981431-2 55410.8976 3.906517-2 55414.6800 3.805406-21731 3102  649
 55418.4926 3.680967-2 55422.3051 3.538470-2 55428.0239 3.301187-21731 3102  650
 55443.2738 2.628833-2 55448.5688 2.407778-2 55453.6520 2.208697-21731 3102  651
 55458.7351 2.024254-2 55463.8183 1.855067-2 55468.9013 1.700999-21731 3102  652
 55473.9838 1.561399-2 55479.0651 1.435327-2 55484.1464 1.321653-21731 3102  653
 55489.2276 1.219239-2 55494.3089 1.126959-2 55499.3900 1.043761-21731 3102  654
 55503.3438 9.846794-3 55507.2976 9.300887-3 55511.2514 8.795978-31731 3102  655
 55515.2050 8.328502-3 55519.1589 7.895177-3 55525.0895 7.302885-31731 3102  656
 55531.0200 6.772084-3 55535.5376 6.404209-3 55540.0551 6.064542-31731 3102  657
 55544.5726 5.750419-3 55551.3489 5.322047-3 55558.1251 4.938936-31731 3102  658
 55564.9013 4.595117-3 55569.9838 4.359976-3 55575.6314 4.119071-31731 3102  659
 55581.2789 3.897472-3 55586.9264 3.693223-3 55592.5739 3.504605-31731 3102  660
 55601.0451 3.247695-3 55609.5163 3.018124-3 55616.0995 2.856273-31731 3102  661
 55623.6183 2.687088-3 55631.1370 2.532761-3 55638.6558 2.391491-31731 3102  662
 55646.1745 2.261685-3 55653.6933 2.142163-3 55661.2120 2.032008-31731 3102  663
 55668.7307 1.930318-3 55676.6370 1.831586-3 55684.9308 1.736153-31731 3102  664
 55693.2245 1.648254-3 55705.6651 1.528675-3 55718.1058 1.421748-31731 3102  665
 55730.5463 1.325887-3 55743.0757 1.239054-3 55755.7826 1.159648-31731 3102  666
 55768.4895 1.087843-3 55781.1964 1.022696-3 55793.9033 9.634035-41731 3102  667
 55806.6100 9.092799-4 55819.3170 8.597389-4 55832.0239 8.142724-41731 3102  668
 55848.9664 7.592418-4 55865.9088 7.098008-4 55882.8513 6.652106-41731 3102  669
 55899.7939 6.248521-4 55916.7364 5.882029-4 55933.6788 5.548182-41731 3102  670
 55950.6213 5.243257-4 55967.5639 4.965252-4 55984.5064 4.709276-41731 3102  671
 56001.4488 4.472891-4 56026.1551 4.160162-4 56050.5076 3.884435-41731 3102  672
 56074.8600 3.636430-4 56094.9801 3.450321-4 56115.1001 3.278982-41731 3102  673
 56145.2801 3.046464-4 56171.2226 2.866935-4 56187.1050 2.765297-41731 3102  674
 56218.8700 2.578585-4 56250.6401 2.411541-4 56282.4100 2.261375-41731 3102  675
 56311.5289 2.137031-4 56340.6476 2.023273-4 56370.6488 1.916107-41731 3102  676
 56402.4151 1.812480-4 56434.1813 1.717806-4 56465.9476 1.631091-41731 3102  677
 56508.3026 1.526370-4 56550.6576 1.432524-4 56593.0126 1.348028-41731 3102  678
 56635.3676 1.271713-4 56677.7226 1.202508-4 56727.1376 1.129600-41731 3102  679
 56755.3751 1.091447-4 56811.8500 1.021446-4 56868.3250 9.588624-51731 3102  680
 56924.8000 9.027883-5 56981.2750 8.523227-5 57037.7500 8.067407-51731 3102  681
 57094.2201 7.654131-5 57150.6900 7.278184-5 57207.1651 6.935131-51731 3102  682
 57263.6400 6.621108-5 57320.1151 6.332932-5 57404.8276 5.944149-51731 3102  683
 57489.5400 5.596839-5 57574.2526 5.288958-5 57658.9601 5.011372-51731 3102  684
 57743.6676 4.762972-5 57828.3800 4.537231-5 57913.0900 4.335546-51731 3102  685
 57997.8000 4.147736-5 58110.7500 3.924733-5 58223.7000 3.726184-51731 3102  686
 58336.6500 3.548567-5 58449.6000 3.388986-5 58562.5400 3.245048-51731 3102  687
 58675.4900 3.114754-5 58788.4400 2.996433-5 58901.3900 2.888670-51731 3102  688
 59070.8101 2.744991-5 59240.2300 2.617628-5 59409.6551 2.506680-51731 3102  689
 59579.0800 2.407691-5 59692.0200 2.348512-5 59917.9200 2.243537-51731 3102  690
 60143.8200 2.154226-5 60369.7100 2.078581-5 60595.6100 2.015035-51731 3102  691
 60821.5000 1.962450-5 61047.4000 1.920024-5 61273.3000 1.887265-51731 3102  692
 61499.1900 1.863958-5 61725.0900 1.850140-5 61894.5100 1.846210-51731 3102  693
 62063.9301 1.848103-5 62233.3500 1.856176-5 62402.7800 1.870972-51731 3102  694
 62628.6700 1.902226-5 62798.0951 1.935895-5 62967.5200 1.978593-51731 3102  695
 63136.9351 2.033526-5 63306.3600 2.100637-5 63419.3100 2.154318-51731 3102  696
 63532.2600 2.215921-5 63645.2000 2.286547-5 63758.1500 2.367523-51731 3102  697
 63871.1000 2.460448-5 63984.0500 2.567273-5 64097.0000 2.690386-51731 3102  698
 64209.9400 2.832614-5 64289.9900 2.946990-5 64370.0300 3.074343-51731 3102  699
 64463.8300 3.242928-5 64546.1726 3.411292-5 64628.5200 3.600237-51731 3102  700
 64710.8676 3.815796-5 64765.7626 3.975336-5 64841.2450 4.218367-51731 3102  701
 64909.8651 4.468402-5 64971.6200 4.719937-5 65019.6551 4.936754-51731 3102  702
 65067.6900 5.172844-5 65122.5900 5.470689-5 65177.4900 5.802463-51731 3102  703
 65232.3850 6.173491-5 65287.2800 6.589097-5 65328.4500 6.935185-51731 3102  704
 65369.6200 7.315697-5 65410.7951 7.734963-5 65451.9700 8.197654-51731 3102  705
 65493.1401 8.710919-5 65534.3100 9.281411-5 65575.4851 9.919254-51731 3102  706
 65606.3663 1.044770-4 65637.2451 1.102518-4 65668.1226 1.165829-41731 3102  707
 65699.0000 1.235439-4 65729.8814 1.312249-4 65760.7626 1.397296-41731 3102  708
 65791.6426 1.491807-4 65822.5201 1.597269-4 65853.3976 1.715464-41731 3102  709
 65880.8451 1.832916-4 65906.5776 1.954591-4 65932.3100 2.090915-41731 3102  710
 65958.0426 2.243354-4 65983.7751 2.414641-4 66000.9300 2.540941-41731 3102  711
 66018.0851 2.678248-4 66035.2400 2.827954-4 66052.3951 2.991673-41731 3102  712
 66069.5500 3.171276-4 66086.7076 3.368947-4 66103.8650 3.587308-41731 3102  713
 66121.0226 3.829479-4 66138.1800 4.099203-4 66151.0464 4.322291-41731 3102  714
 66163.9126 4.565694-4 66176.7789 4.832021-4 66189.6451 5.124443-41731 3102  715
 66202.5113 5.446561-4 66215.3776 5.802126-4 66228.2439 6.196212-41731 3102  716
 66241.1101 6.636716-4 66253.9764 7.131056-4 66262.5539 7.494815-41731 3102  717
 66271.1313 7.889724-4 66279.1726 8.291704-4 66290.4301 8.913231-41731 3102  718
 66297.9351 9.370858-4 66305.4401 9.867985-4 66312.9451 1.040957-31731 3102  719
 66320.4501 1.100113-3 66327.9551 1.164915-3 66335.4600 1.236153-31731 3102  720
 66344.0158 1.326456-3 66352.5714 1.428048-3 66358.2750 1.503024-31731 3102  721
 66363.9789 1.584618-3 66369.6826 1.673663-3 66375.3863 1.771143-31731 3102  722
 66381.0900 1.878210-3 66385.7226 1.973151-3 66390.3551 2.076128-31731 3102  723
 66394.9876 2.188087-3 66399.6200 2.310101-3 66404.2526 2.443434-31731 3102  724
 66408.8851 2.589576-3 66413.5176 2.750323-3 66418.1500 2.927811-31731 3102  725
 66423.2970 3.147743-3 66426.7283 3.309591-3 66430.1595 3.485268-31731 3102  726
 66433.5908 3.676424-3 66437.0220 3.884962-3 66440.4533 4.113096-31731 3102  727
 66443.8845 4.363411-3 66446.9726 4.610160-3 66449.7176 4.848718-31731 3102  728
 66452.4626 5.107537-3 66455.2076 5.389021-3 66457.9526 5.695943-31731 3102  729
 66460.6976 6.031512-3 66463.4426 6.399450-3 66466.1876 6.804112-31731 3102  730
 66468.6751 7.206808-3 66470.9051 7.600680-3 66473.1351 8.029472-31731 3102  731
 66475.3651 8.497498-3 66477.5951 9.009772-3 66479.8251 9.572130-31731 3102  732
 66482.0551 1.019139-2 66484.2851 1.087557-2 66486.2063 1.152430-21731 3102  733
 66488.6251 1.243062-2 66490.2376 1.309796-2 66491.8500 1.382251-21731 3102  734
 66493.4626 1.461109-2 66495.0751 1.547133-2 66496.6876 1.641218-21731 3102  735
 66498.3000 1.744380-2 66499.6726 1.840234-2 66501.0451 1.944348-21731 3102  736
 66502.4176 2.057677-2 66503.7900 2.181277-2 66505.1626 2.316374-21731 3102  737
 66506.5351 2.464312-2 66507.9076 2.626644-2 66509.2800 2.805072-21731 3102  738
 66510.3776 2.960648-2 66511.4751 3.128816-2 66512.5726 3.310764-21731 3102  739
 66513.6701 3.507715-2 66514.7676 3.721037-2 66515.8651 3.952085-21731 3102  740
 66516.9626 4.202344-2 66518.0600 4.473266-2 66519.5020 4.863220-21731 3102  741
 66520.9439 5.294736-2 66522.3858 5.770921-2 66523.8276 6.294310-21731 3102  742
 66525.2695 6.866793-2 66526.5726 7.427071-2 66527.8064 7.994769-21731 3102  743
 66529.0400 8.597351-2 66530.6851 9.451127-2 66532.3300 1.035408-11731 3102  744
 66535.6251 1.225508-1 66538.0963 1.368397-1 66539.7776 1.460974-11731 3102  745
 66541.4926 1.547984-1 66543.2076 1.624293-1 66544.4939 1.672661-11731 3102  746
 66545.7800 1.712141-1 66547.3251 1.746477-1 66548.3551 1.760839-11731 3102  747
 66549.3851 1.768089-1 66549.9000 1.769006-1 66551.2051 1.763220-11731 3102  748
 66552.5100 1.745970-1 66553.8151 1.717712-1 66555.1200 1.679188-11731 3102  749
 66556.4064 1.632116-1 66557.6926 1.577150-1 66559.4076 1.493762-11731 3102  750
 66561.1226 1.401761-1 66564.4476 1.210720-1 66566.9151 1.068263-11731 3102  751
 66568.5600 9.768201-2 66570.2076 8.897839-2 66571.8550 8.083182-21731 3102  752
 66573.0908 7.512519-2 66574.3263 6.978127-2 66575.6307 6.453708-21731 3102  753
 66577.0726 5.920971-2 66578.5145 5.435923-2 66579.9564 4.996188-21731 3102  754
 66581.3983 4.598768-2 66582.8400 4.240448-2 66584.0751 3.961987-21731 3102  755
 66585.3101 3.707611-2 66586.5451 3.475231-2 66587.7801 3.262916-21731 3102  756
 66589.0151 3.068787-2 66590.2501 2.891170-2 66591.4851 2.728469-21731 3102  757
 66592.7200 2.579268-2 66594.0926 2.427677-2 66595.4651 2.289542-21731 3102  758
 66596.8376 2.163419-2 66598.2100 2.048054-2 66599.5826 1.942310-21731 3102  759
 66600.9551 1.845214-2 66602.3276 1.755881-2 66603.7000 1.673548-21731 3102  760
 66605.6813 1.565658-2 66607.6626 1.469166-2 66609.6439 1.382575-21731 3102  761
 66611.6251 1.304633-2 66613.6064 1.234264-2 66615.5876 1.170571-21731 3102  762
 66617.5688 1.112774-2 66620.2898 1.041810-2 66622.5088 9.902405-31731 3102  763
 66624.7280 9.436229-3 66626.9470 9.014021-3 66629.9058 8.511257-31731 3102  764
 66632.8645 8.068604-3 66635.8233 7.678168-3 66638.7820 7.333406-31731 3102  765
 66641.7407 7.028850-3 66644.7445 6.756072-3 66647.7933 6.512595-31731 3102  766
 66650.8420 6.299224-3 66653.8908 6.112959-3 66658.4639 5.878955-31731 3102  767
 66663.0370 5.693390-3 66667.6100 5.550899-3 66671.5851 5.458791-31731 3102  768
 66675.5601 5.394007-3 66679.5351 5.354960-3 66683.5100 5.340510-31731 3102  769
 66688.3476 5.355056-3 66693.1851 5.404325-3 66698.0226 5.488483-31731 3102  770
 66702.8601 5.608540-3 66707.6976 5.766379-3 66712.5351 5.964691-31731 3102  771
 66717.3726 6.207005-3 66721.0007 6.420263-3 66725.7888 6.747397-31731 3102  772
 66729.3676 7.029459-3 66732.9464 7.347380-3 66736.5250 7.705184-31731 3102  773
 66740.1039 8.107675-3 66743.6826 8.560481-3 66747.2613 9.070297-31731 3102  774
 66750.8400 9.644995-3 66753.4901 1.011783-2 66756.1401 1.063573-21731 3102  775
 66758.7901 1.120373-2 66761.4401 1.182754-2 66764.0901 1.251377-21731 3102  776
 66766.7401 1.326990-2 66769.3901 1.410461-2 66772.0400 1.502780-21731 3102  777
 66774.1613 1.583825-2 66776.2826 1.671927-2 66778.4039 1.767830-21731 3102  778
 66780.5250 1.872344-2 66782.6464 1.986389-2 66784.7676 2.110954-21731 3102  779
 66786.8888 2.247146-2 66789.0100 2.396150-2 66791.3951 2.580614-21731 3102  780
 66793.7801 2.784855-2 66796.1651 3.010924-2 66798.5501 3.260860-21731 3102  781
 66800.9351 3.536640-2 66803.3201 3.839965-2 66805.7051 4.172109-21731 3102  782
 66808.0900 4.533581-2 66810.4751 4.923947-2 66812.8601 5.341276-21731 3102  783
 66816.1076 5.946080-2 66824.3951 7.557321-2 66826.8813 8.007214-21731 3102  784
 66829.2076 8.388308-2 66831.4539 8.706101-2 66833.7000 8.962397-21731 3102  785
 66835.9464 9.146930-2 66838.1926 9.251905-2 66839.9000 9.275554-21731 3102  786
 66841.7883 9.244341-2 66843.6764 9.153842-2 66845.5645 9.006800-21731 3102  787
 66847.4526 8.807595-2 66849.3407 8.561934-2 66851.6276 8.211915-21731 3102  788
 66853.2851 7.929290-2 66856.6000 7.313684-2 66864.0251 5.860690-21731 3102  789
 66867.2051 5.269786-2 66869.5900 4.853851-2 66871.9751 4.465167-21731 3102  790
 66874.3601 4.105473-2 66876.7451 3.775079-2 66879.1301 3.473348-21731 3102  791
 66881.5151 3.198935-2 66883.9001 2.950104-2 66886.2851 2.724860-21731 3102  792
 66888.6700 2.521164-2 66890.5251 2.376304-2 66892.3801 2.242331-21731 3102  793
 66894.2351 2.118359-2 66896.0900 2.003581-2 66897.9451 1.897217-21731 3102  794
 66900.7276 1.751941-2 66903.5100 1.621899-2 66905.6313 1.531810-21731 3102  795
 66907.7526 1.448740-2 66909.8739 1.372020-2 66911.9950 1.301060-21731 3102  796
 66915.1770 1.204261-2 66918.3588 1.117666-2 66920.4800 1.064938-21731 3102  797
 66923.1301 1.004075-2 66925.7801 9.482339-3 66928.4301 8.968904-31731 3102  798
 66931.0801 8.495906-3 66933.7301 8.059286-3 66937.7051 7.464967-31731 3102  799
 66941.6800 6.934355-3 66944.9438 6.540141-3 66948.2076 6.178903-31731 3102  800
 66951.4714 5.847042-3 66954.7351 5.541452-3 66957.9989 5.259408-31731 3102  801
 66962.8945 4.875472-3 66967.7900 4.532659-3 66972.3463 4.245652-31731 3102  802
 66976.9026 3.985632-3 66981.4589 3.749282-3 66986.0151 3.533765-31731 3102  803
 66990.5714 3.336657-3 66995.1276 3.155920-3 66999.6838 2.989787-31731 3102  804
 67004.2400 2.836733-3 67009.5413 2.673334-3 67014.8426 2.524004-31731 3102  805
 67020.1439 2.387170-3 67025.4450 2.261481-3 67030.7464 2.145753-31731 3102  806
 67036.0476 2.038960-3 67043.9995 1.893560-3 67049.9632 1.794783-31731 3102  807
 67056.5895 1.694099-3 67063.2158 1.601915-3 67069.8420 1.517300-31731 3102  808
 67076.4683 1.439447-3 67083.0945 1.367645-3 67093.0338 1.269937-31731 3102  809
 67099.6600 1.210708-3 67107.9426 1.142576-3 67116.2251 1.080322-31731 3102  810
 67124.5076 1.023207-3 67132.7900 9.705982-4 67141.0726 9.220280-41731 3102  811
 67153.4964 8.559239-4 67165.9200 7.969503-4 67178.7189 7.426125-41731 3102  812
 67191.5176 6.938671-4 67204.3164 6.499348-4 67217.1151 6.101973-41731 3102  813
 67229.9138 5.741344-4 67242.8776 5.408974-4 67255.9239 5.104076-41731 3102  814
 67268.9701 4.825556-4 67282.0164 4.569936-4 67295.0626 4.334778-41731 3102  815
 67308.7295 4.108178-4 67323.6376 3.881473-4 67338.5458 3.673815-41731 3102  816
 67353.4539 3.483147-4 67373.3313 3.252131-4 67393.2101 3.044351-41731 3102  817
 67413.0901 2.856723-4 67432.9701 2.686721-4 67452.8501 2.532147-41731 3102  818
 67474.3863 2.379985-4 67497.5789 2.231999-4 67520.7714 2.098637-41731 3102  819
 67543.9638 1.976778-4 67565.5001 1.873344-4 67595.3200 1.743784-41731 3102  820
 67625.1401 1.627948-4 67654.9601 1.523960-4 67684.7801 1.430218-41731 3102  821
 67714.6000 1.345443-4 67744.4201 1.268496-4 67774.2401 1.198455-41731 3102  822
 67804.0588 1.134482-4 67833.8751 1.075888-4 67873.6300 1.005092-41731 3102  823
 67913.3901 9.416803-5 67953.1500 8.845630-5 67992.9101 8.330030-51731 3102  824
 68032.6700 7.862365-5 68072.4300 7.437312-5 68112.1900 7.050325-51731 3102  825
 68165.2000 6.584793-5 68218.2100 6.168426-5 68271.2250 5.795302-51731 3102  826
 68324.2400 5.459657-5 68377.2501 5.156527-5 68430.2600 4.881816-51731 3102  827
 68483.2701 4.632051-5 68536.2800 4.404275-5 68589.2951 4.195962-51731 3102  828
 68642.3100 4.004899-5 68695.3200 3.829253-5 68774.8376 3.591757-51731 3102  829
 68854.3600 3.379453-5 68933.8751 3.190796-5 69013.3901 3.020699-51731 3102  830
 69092.9076 2.868241-5 69172.4300 2.729957-5 69278.4500 2.565616-51731 3102  831
 69384.4800 2.420289-5 69490.5000 2.291285-5 69596.5200 2.176222-51731 3102  832
 69702.5500 2.073137-5 69808.5700 1.980369-5 69927.8500 1.887038-51731 3102  833
 70047.1300 1.802881-5 70179.6551 1.720158-5 70338.6900 1.631396-51731 3102  834
 70497.7300 1.554259-5 70656.7600 1.485496-5 70762.7900 1.444299-51731 3102  835
 70974.8400 1.370785-5 71160.3800 1.314777-5 71345.9200 1.265338-51731 3102  836
 71531.4600 1.221493-5 71717.0000 1.182462-5 71929.0500 1.142915-51731 3102  837
 72141.1000 1.108007-5 72353.1500 1.077098-5 72565.2000 1.049662-51731 3102  838
 72803.7500 1.022404-5 73161.5801 9.879081-6 73519.4100 9.589864-61731 3102  839
 73970.0100 9.301204-6 74420.6200 9.078755-6 74871.2200 8.911910-61731 3102  840
 75321.8200 8.792918-6 75851.9400 8.706676-6 76382.0600 8.672689-61731 3102  841
 76912.1800 8.687117-6 77442.3000 8.747968-6 78046.6400 8.873410-61731 3102  842
 78650.9700 9.060116-6 79255.3100 9.311958-6 79859.6500 9.635154-61731 3102  843
 80281.0900 9.907521-6 80702.5400 1.022314-5 81123.9800 1.058697-51731 3102  844
 81545.4300 1.100521-5 81966.8700 1.148558-5 82388.3200 1.203769-51731 3102  845
 82809.7700 1.267344-5 83125.8500 1.321748-5 83388.5501 1.372132-51731 3102  846
 83545.8900 1.403557-5 83860.5700 1.474098-5 84175.2400 1.554103-51731 3102  847
 84411.2501 1.622095-5 84647.2600 1.697676-5 84804.6000 1.754110-51731 3102  848
 84961.9400 1.816594-5 85119.2800 1.887185-5 85276.6200 1.969407-51731 3102  849
 85394.6251 2.043377-5 85473.2951 2.101285-5 85512.6300 2.133055-51731 3102  850
 85610.9651 2.228943-5 85669.9600 2.301525-5 85709.2951 2.359354-51731 3102  851
 85759.5438 2.448537-5 85792.2851 2.519468-5 85825.0263 2.603542-51731 3102  852
 85856.2901 2.701788-5 85876.6401 2.777860-5 85896.9901 2.865956-51731 3102  853
 85917.3400 2.969186-5 85933.9189 3.067936-5 85950.4976 3.182843-51731 3102  854
 85967.0764 3.317774-5 85983.6551 3.478326-5 85994.7076 3.602966-51731 3102  855
 86005.7600 3.744547-5 86017.1226 3.911900-5 86028.4851 4.106770-51731 3102  856
 86039.8476 4.335457-5 86047.4226 4.510688-5 86054.9976 4.707736-51731 3102  857
 86062.5726 4.930483-5 86069.5882 5.163845-5 86076.0445 5.405682-51731 3102  858
 86082.5008 5.678015-5 86088.9570 5.986289-5 86095.4133 6.337267-51731 3102  859
 86100.2555 6.633533-5 86105.0976 6.962844-5 86109.9398 7.330387-51731 3102  860
 86114.7820 7.742368-5 86119.9470 8.239408-5 86123.8208 8.657870-51731 3102  861
 86127.6945 9.121966-5 86131.5683 9.638766-5 86135.4420 1.021676-41731 3102  862
 86139.3158 1.086618-4 86142.2211 1.140752-4 86145.1263 1.200226-41731 3102  863
 86148.0317 1.265783-4 86151.5826 1.355456-4 86154.1651 1.428303-41731 3102  864
 86156.7476 1.508581-4 86159.3301 1.597362-4 86161.9126 1.695941-41731 3102  865
 86164.4951 1.805854-4 86167.0776 1.928987-4 86169.0145 2.031376-41731 3102  866
 86171.3813 2.170054-4 86173.1026 2.281633-4 86174.8239 2.403579-41731 3102  867
 86176.5451 2.537296-4 86178.2664 2.684506-4 86179.9876 2.847272-41731 3102  868
 86181.7088 3.028212-4 86183.4300 3.230658-4 86184.9801 3.435059-41731 3102  869
 86186.5301 3.664920-4 86187.6927 3.857650-4 86188.8551 4.071565-41731 3102  870
 86190.0176 4.311314-4 86191.1801 4.583041-4 86191.9551 4.785968-41731 3102  871
 86192.7301 5.009858-4 86193.5051 5.258627-4 86194.2801 5.536918-41731 3102  872
 86195.0551 5.850546-4 86195.8300 6.206487-4 86196.3895 6.494565-41731 3102  873
 86196.9488 6.812901-4 86197.5083 7.165953-4 86198.0676 7.558642-41731 3102  874
 86198.6270 7.996872-4 86199.1864 8.487032-4 86199.7458 9.036718-41731 3102  875
 86200.3050 9.654267-4 86200.7247 1.016802-3 86201.1442 1.072973-31731 3102  876
 86201.5638 1.134459-3 86201.9833 1.201781-3 86202.4028 1.275553-31731 3102  877
 86202.8223 1.356397-3 86203.2419 1.445029-3 86203.6613 1.542159-31731 3102  878
 86204.0810 1.648683-3 86204.5004 1.765401-3 86204.7800 1.849349-31731 3102  879
 86205.2107 1.989090-3 86205.6413 2.142463-3 86206.0720 2.310770-31731 3102  880
 86206.5026 2.495288-3 86206.9333 2.697548-3 86207.3639 2.918973-31731 3102  881
 86207.7945 3.161262-3 86208.2250 3.426048-3 86208.6558 3.715321-31731 3102  882
 86209.0864 4.030831-3 86209.5170 4.374708-3 86209.9476 4.748946-31731 3102  883
 86210.3783 5.155960-3 86210.8088 5.597850-3 86211.2395 6.077163-31731 3102  884
 86211.6700 6.596206-3 86212.0138 7.041063-3 86212.3576 7.514152-31731 3102  885
 86212.8733 8.280050-3 86213.3889 9.117378-3 86213.9046 1.003106-21731 3102  886
 86214.4201 1.102554-2 86214.9358 1.210640-2 86215.4514 1.327760-21731 3102  887
 86215.9670 1.454423-2 86216.4826 1.591056-2 86216.9982 1.738133-21731 3102  888
 86217.4501 1.875919-2 86218.0101 2.058621-2 86218.5701 2.254934-21731 3102  889
 86219.1301 2.465235-2 86219.6901 2.689847-2 86220.2501 2.928994-21731 3102  890
 86220.8101 3.182790-2 86221.3701 3.451261-2 86222.0801 3.812628-21731 3102  891
 86222.7251 4.160894-2 86223.5851 4.653654-2 86224.4451 5.176949-21731 3102  892
 86225.4351 5.813233-2 86226.8151 6.749679-2 86230.6751 9.486392-21731 3102  893
 86232.1900 1.050391-1 86233.3226 1.120225-1 86234.3200 1.175645-11731 3102  894
 86235.4251 1.228868-1 86236.3301 1.265066-1 86237.3700 1.297485-11731 3102  895
 86238.3600 1.318509-1 86239.2351 1.328692-1 86239.9000 1.331030-11731 3102  896
 86240.7800 1.326908-1 86241.7201 1.313515-1 86242.4900 1.295821-11731 3102  897
 86243.5151 1.263332-1 86244.3751 1.228746-1 86245.4800 1.175502-11731 3102  898
 86246.4776 1.120066-1 86247.6100 1.050232-1 86248.9301 9.619618-21731 3102  899
 86251.6100 7.719309-2 86253.4539 6.424793-2 86254.5600 5.684194-21731 3102  900
 86255.6508 4.992780-2 86256.5233 4.472619-2 86257.3958 3.984745-21731 3102  901
 86258.0500 3.641273-2 86258.8339 3.255764-2 86259.3564 3.014745-21731 3102  902
 86259.8789 2.786515-2 86260.4014 2.570982-2 86260.9239 2.367998-21731 3102  903
 86261.4464 2.177360-2 86261.9688 1.998790-2 86262.4045 1.858883-21731 3102  904
 86262.9276 1.701354-2 86263.4508 1.554853-2 86263.9739 1.418986-21731 3102  905
 86264.4971 1.293262-2 86265.0201 1.177242-2 86265.5433 1.070350-21731 3102  906
 86266.0664 9.721699-3 86266.5895 8.821615-3 86267.1126 7.998444-31731 3102  907
 86267.4613 7.489807-3 86267.8100 7.011804-3 86268.2463 6.454370-31731 3102  908
 86268.6826 5.939865-3 86269.1189 5.465466-3 86269.5551 5.028776-31731 3102  909
 86269.9914 4.627107-3 86270.4276 4.258299-3 86270.8639 3.919950-31731 3102  910
 86271.3001 3.610001-3 86271.7364 3.326208-3 86272.1726 3.066788-31731 3102  911
 86272.6089 2.829793-3 86273.0451 2.613551-3 86273.4814 2.416305-31731 3102  912
 86273.9176 2.236614-3 86274.3538 2.072967-3 86274.7900 1.924066-31731 3102  913
 86275.1825 1.801605-3 86275.5748 1.689222-3 86275.9672 1.586060-31731 3102  914
 86276.3595 1.491404-3 86276.7519 1.404526-3 86277.1442 1.324807-31731 3102  915
 86277.5366 1.251633-3 86277.9289 1.184487-3 86278.3213 1.122800-31731 3102  916
 86278.7136 1.066154-3 86279.2367 9.976722-4 86279.7599 9.364018-41731 3102  917
 86280.2830 8.815126-4 86280.8061 8.322586-4 86281.3292 7.879738-41731 3102  918
 86281.8524 7.480713-4 86282.3755 7.120346-4 86282.8985 6.794044-41731 3102  919
 86283.5088 6.451000-4 86284.2064 6.101843-4 86284.9039 5.791715-41731 3102  920
 86285.6014 5.514663-4 86286.2989 5.265695-4 86286.9964 5.040655-41731 3102  921
 86288.0426 4.740564-4 86289.0889 4.477266-4 86290.1351 4.243655-41731 3102  922
 86291.1814 4.034267-4 86292.2276 3.844961-4 86293.6226 3.618319-41731 3102  923
 86295.1920 3.392164-4 86296.0638 3.277592-4 86297.8076 3.068451-41731 3102  924
 86299.5514 2.882068-4 86301.2951 2.714819-4 86303.0389 2.563876-41731 3102  925
 86304.7826 2.427032-4 86306.5263 2.302461-4 86308.9242 2.148494-41731 3102  926
 86310.8863 2.035427-4 86312.8486 1.932440-4 86314.8108 1.838336-41731 3102  927
 86317.4270 1.724930-4 86320.0433 1.623476-4 86322.6595 1.532311-41731 3102  928
 86325.2758 1.450060-4 86327.8920 1.375575-4 86330.8613 1.299231-41731 3102  929
 86334.1839 1.222754-4 86337.5064 1.154418-4 86340.8289 1.093098-41731 3102  930
 86344.1514 1.037861-4 86347.4739 9.879264-5 86350.7964 9.426341-51731 3102  931
 86354.1188 9.014238-5 86358.4638 8.528997-5 86362.4895 8.126549-51731 3102  932
 86366.5151 7.763305-5 86371.8826 7.331421-5 86377.2501 6.950757-51731 3102  933
 86382.6176 6.613547-5 86387.9851 6.313495-5 86393.3526 6.045391-51731 3102  934
 86400.7726 5.719466-5 86406.9301 5.482420-5 86415.1401 5.205733-51731 3102  935
 86423.3501 4.966804-5 86431.5601 4.759296-5 86439.7701 4.577896-51731 3102  936
 86447.9801 4.418219-5 86460.2951 4.212368-5 86469.4526 4.081228-51731 3102  937
 86479.5576 3.954557-5 86494.7151 3.793782-5 86509.8726 3.661354-51731 3102  938
 86525.0301 3.551893-5 86545.2400 3.432859-5 86565.4476 3.337189-51731 3102  939
 86585.6551 3.260344-5 86615.9663 3.171888-5 86646.2776 3.107413-51731 3102  940
 86666.4851 3.075019-5 86706.9000 3.027794-5 86747.3200 2.998157-51731 3102  941
 86807.9500 2.977748-5 86828.1600 2.975734-5 86908.9900 2.984365-51731 3102  942
 86989.8300 3.012229-5 87111.0750 3.078910-5 87232.3300 3.164652-51731 3102  943
 87313.1600 3.231107-5 87474.8300 3.381597-5 87636.5000 3.553658-51731 3102  944
 87757.7500 3.696799-5 87879.0000 3.852550-5 88000.2500 4.021584-51731 3102  945
 88121.5100 4.204912-5 88242.7600 4.403785-5 88364.0100 4.619706-51731 3102  946
 88485.2600 4.854439-5 88606.5100 5.110014-5 88719.6800 5.369486-51731 3102  947
 88832.8500 5.651496-5 88946.0200 5.958609-5 89059.1900 6.293915-51731 3102  948
 89188.5200 6.715989-5 89317.8600 7.185318-5 89447.1900 7.708651-51731 3102  949
 89544.1951 8.142969-5 89641.1950 8.615699-5 89738.1951 9.135558-51731 3102  950
 89835.2000 9.703626-5 89932.1976 1.033213-4 90029.2000 1.102283-41731 3102  951
 90126.2026 1.179224-4 90223.2000 1.264336-4 90287.8700 1.326647-41731 3102  952
 90352.5400 1.393824-4 90417.2051 1.466387-4 90481.8700 1.544911-41731 3102  953
 90546.5400 1.630078-4 90611.2100 1.722649-4 90675.8751 1.823506-41731 3102  954
 90740.5400 1.933640-4 90805.2100 2.054239-4 90869.8800 2.186652-41731 3102  955
 90934.5451 2.332464-4 90999.2100 2.493499-4 91063.8801 2.671962-41731 3102  956
 91128.5500 2.870096-4 91189.1726 3.076884-4 91249.7951 3.306698-41731 3102  957
 91290.2100 3.474751-4 91332.2450 3.663436-4 91374.2800 3.868089-41731 3102  958
 91426.0151 4.144145-4 91477.7500 4.449805-4 91523.0151 4.745655-41731 3102  959
 91568.2800 5.071558-4 91607.0814 5.378548-4 91645.8826 5.713735-41731 3102  960
 91684.6838 6.080782-4 91723.4851 6.483432-4 91762.2863 6.926600-41731 3102  961
 91801.0876 7.415340-4 91839.8889 7.956260-4 91878.6900 8.556225-41731 3102  962
 91917.4914 9.224248-4 91956.2926 9.969986-4 91993.4763 1.076859-31731 3102  963
 92027.4251 1.157715-3 92061.3738 1.247790-3 92095.3251 1.348108-31731 3102  964
 92129.2776 1.460122-3 92151.9126 1.542110-3 92174.5463 1.630611-31731 3102  965
 92197.1789 1.726243-3 92219.8114 1.829698-3 92242.4438 1.941716-31731 3102  966
 92265.0763 2.063133-3 92287.7089 2.194819-3 92310.3414 2.337747-31731 3102  967
 92332.9738 2.492932-3 92355.6076 2.661456-3 92378.2426 2.844448-31731 3102  968
 92400.8776 3.042987-3 92423.5126 3.258179-3 92446.1463 3.491042-31731 3102  969
 92468.7789 3.742341-3 92491.4114 4.012642-3 92514.0438 4.302010-31731 3102  970
 92547.9951 4.770429-3 92581.9476 5.274629-3 92664.4000 6.554530-31731 3102  971
 92688.6501 6.904979-3 92712.9000 7.222441-3 92735.8576 7.477486-31731 3102  972
 92753.0758 7.630781-3 92770.2939 7.747220-3 92787.5120 7.823171-31731 3102  973
 92807.3151 7.857897-3 92809.9000 7.858087-3 92825.6633 7.837196-31731 3102  974
 92841.4264 7.780215-3 92862.4439 7.650596-3 92883.4613 7.465279-31731 3102  975
 92904.0738 7.237341-3 92924.2814 6.977090-3 92954.5926 6.539511-31731 3102  976
 93045.1276 5.135003-3 93081.5038 4.604763-3 93107.3714 4.253858-31731 3102  977
 93133.2389 3.927287-3 93159.1063 3.625729-3 93184.9738 3.348764-31731 3102  978
 93210.8414 3.095346-3 93236.7089 2.864126-3 93262.5763 2.653537-31731 3102  979
 93288.4426 2.461848-3 93314.3076 2.287429-3 93340.1726 2.128702-31731 3102  980
 93366.0376 1.984119-3 93391.9038 1.852314-3 93417.7714 1.732047-31731 3102  981
 93443.6389 1.622153-3 93469.5063 1.521582-3 93495.3738 1.429424-31731 3102  982
 93521.2414 1.344861-3 93547.1089 1.267121-3 93572.9763 1.195553-31731 3102  983
 93598.8438 1.129576-3 93624.7114 1.068637-3 93650.5789 1.012275-31731 3102  984
 93689.3800 9.354072-4 93728.1814 8.666568-4 93766.9826 8.049497-41731 3102  985
 93805.7826 7.494169-4 93844.5801 6.992716-4 93883.3776 6.538759-41731 3102  986
 93922.1776 6.126485-4 93960.9789 5.751275-4 93999.7800 5.408718-41731 3102  987
 94041.0076 5.076737-4 94082.2351 4.774156-4 94130.7351 4.451138-41731 3102  988
 94172.7651 4.198415-4 94217.2226 3.951622-4 94264.1076 3.712997-41731 3102  989
 94308.1626 3.508643-4 94349.3876 3.332102-4 94410.4201 3.094028-41731 3102  990
 94450.8400 2.950233-4 94503.3801 2.778687-4 94555.9200 2.620517-41731 3102  991
 94620.5900 2.444045-4 94685.2600 2.284850-4 94749.9251 2.140777-41731 3102  992
 94814.5900 2.009962-4 94879.2600 1.890863-4 94943.9300 1.782129-41731 3102  993
 95008.5951 1.682605-4 95073.2600 1.591271-4 95137.9300 1.507275-41731 3102  994
 95202.6000 1.429853-4 95267.2651 1.358344-4 95331.9300 1.292155-41731 3102  995
 95396.6000 1.230784-4 95493.6026 1.146986-4 95590.6000 1.071283-41731 3102  996
 95687.6051 1.003346-4 95784.6050 9.415729-5 95881.6051 8.857524-51731 3102  997
 95978.6100 8.347019-5 96075.6076 7.882989-5 96172.6101 7.456392-51731 3102  998
 96285.7801 7.004313-5 96431.2800 6.483678-5 96560.6200 6.070135-51731 3102  999
 96673.7800 5.741710-5 96786.9500 5.440948-5 96900.1200 5.164775-51731 3102 1000
 97013.2900 4.910629-5 97134.5400 4.660179-5 97255.7900 4.429946-51731 3102 1001
 97377.0400 4.217857-5 97498.2900 4.022072-5 97619.5500 3.840979-51731 3102 1002
 97740.8000 3.673162-5 97922.6751 3.444530-5 98064.1350 3.283197-51731 3102 1003
 98144.9700 3.194732-5 98306.6400 3.032487-5 98468.3100 2.884130-51731 3102 1004
 98629.9800 2.748150-5 98791.6400 2.623234-5 98953.3100 2.508239-51731 3102 1005
 99114.9800 2.402168-5 99357.4851 2.258575-5 99599.9900 2.129260-51731 3102 1006
 99842.4950 2.014621-5 100085.000 1.910736-5 100327.500 1.818013-51731 3102 1007
 100570.000 1.733599-5 100893.300 1.633767-5 101216.700 1.545954-51731 3102 1008
 101540.000 1.468498-5 101863.400 1.399978-5 102186.700 1.339217-51731 3102 1009
 102510.000 1.285234-5 102833.400 1.237205-5 103156.700 1.194435-51731 3102 1010
 103480.000 1.156333-5 103803.400 1.122398-5 104126.700 1.092202-51731 3102 1011
 104611.750 1.053446-5 105096.700 1.020613-5 105581.750 9.940867-61731 3102 1012
 106066.700 9.721404-6 106390.100 9.602405-6 107036.800 9.419758-61731 3102 1013
 107683.400 9.304309-6 108491.750 9.247145-6 108653.400 9.244691-61731 3102 1014
 109380.976 9.289553-6 109623.500 9.311825-6 110270.100 9.424231-61731 3102 1015
 110916.800 9.591291-6 111563.500 9.814961-6 112210.200 1.009872-51731 3102 1016
 112856.800 1.044776-5 113503.500 1.086931-5 114150.200 1.137291-51731 3102 1017
 114635.201 1.181513-5 115120.200 1.231211-5 115605.201 1.288506-51731 3102 1018
 116090.200 1.353037-5 116533.200 1.420479-5 116976.200 1.497030-51731 3102 1019
 117419.200 1.584308-5 117751.451 1.658439-5 118114.600 1.748308-51731 3102 1020
 118367.100 1.817853-5 118735.600 1.930999-5 119011.951 2.026882-51731 3102 1021
 119288.300 2.132591-5 119564.701 2.251903-5 119841.100 2.384690-51731 3102 1022
 120025.300 2.483189-5 120209.600 2.590496-5 120393.800 2.707797-51731 3102 1023
 120578.000 2.836520-5 120762.300 2.978381-5 120946.500 3.135426-51731 3102 1024
 121130.800 3.310191-5 121315.000 3.505753-5 121499.300 3.725773-51731 3102 1025
 121637.451 3.910351-5 121775.700 4.113066-5 121913.851 4.339304-51731 3102 1026
 122052.000 4.589868-5 122190.250 4.872880-5 122282.351 5.080699-51731 3102 1027
 122374.451 5.306705-5 122466.601 5.553325-5 122558.750 5.823429-51731 3102 1028
 122650.851 6.120430-5 122696.900 6.277991-5 122789.000 6.622897-51731 3102 1029
 122881.100 7.006487-5 122973.300 7.435495-5 123076.951 7.981208-51731 3102 1030
 123146.026 8.390228-5 123215.076 8.841212-5 123284.151 9.340829-51731 3102 1031
 123353.251 9.896643-5 123422.351 1.051854-4 123491.451 1.121762-41731 3102 1032
 123551.926 1.190289-4 123603.776 1.255682-4 123655.601 1.327975-41731 3102 1033
 123707.401 1.408253-4 123758.626 1.496957-4 123809.276 1.594993-41731 3102 1034
 123858.801 1.702757-4 123895.101 1.790436-4 123931.400 1.886541-41731 3102 1035
 123972.839 2.008208-4 124014.276 2.144296-4 124055.726 2.297670-41731 3102 1036
 124083.376 2.410809-4 124124.851 2.599202-4 124152.500 2.739698-41731 3102 1037
 124180.126 2.894168-4 124207.750 3.064169-4 124235.376 3.251682-41731 3102 1038
 124263.000 3.459948-4 124290.651 3.691669-4 124318.300 3.950712-41731 3102 1039
 124339.039 4.165928-4 124359.776 4.401004-4 124380.507 4.658634-41731 3102 1040
 124401.226 4.942459-4 124421.945 5.255782-4 124442.664 5.602235-41731 3102 1041
 124463.383 5.987795-4 124484.100 6.418717-4 124501.895 6.829597-41731 3102 1042
 124519.689 7.282686-4 124537.483 7.786359-4 124555.276 8.349417-41731 3102 1043
 124573.070 8.979571-4 124590.176 9.659284-4 124606.939 1.040719-31731 3102 1044
 124618.114 1.095554-3 124629.289 1.154918-3 124640.464 1.219493-31731 3102 1045
 124651.639 1.289899-3 124662.813 1.366784-3 124673.007 1.443258-31731 3102 1046
 124686.826 1.557854-3 124696.039 1.642126-3 124705.250 1.733475-31731 3102 1047
 124714.464 1.832697-3 124723.676 1.940633-3 124732.888 2.058320-31731 3102 1048
 124742.100 2.186965-3 124751.758 2.335096-3 124761.414 2.498441-31731 3102 1049
 124771.070 2.679014-3 124780.726 2.879199-3 124790.382 3.101852-31731 3102 1050
 124798.213 3.301066-3 124805.133 3.492614-3 124812.050 3.700257-31731 3102 1051
 124818.970 3.925772-3 124825.888 4.170870-3 124832.801 4.437360-31731 3102 1052
 124839.701 4.727043-3 124846.601 5.042784-3 124853.501 5.387109-31731 3102 1053
 124860.401 5.762889-3 124867.300 6.172951-3 124874.220 6.621808-31731 3102 1054
 124881.139 7.111200-3 124888.058 7.644237-3 124894.976 8.223423-31731 3102 1055
 124901.895 8.850767-3 124908.801 9.525756-3 124915.701 1.024821-21731 3102 1056
 124922.601 1.101574-2 124931.801 1.209991-2 124954.376 1.488490-21731 3102 1057
 124964.408 1.604242-2 124971.095 1.672776-2 124977.783 1.731196-21731 3102 1058
 124984.470 1.776854-2 124989.486 1.801357-2 124994.500 1.816703-21731 3102 1059
 125000.000 1.822489-2 125005.526 1.816474-2 125011.050 1.798830-21731 3102 1060
 125016.576 1.770187-2 125022.100 1.731557-2 125028.551 1.675533-21731 3102 1061
 125035.001 1.610013-2 125044.676 1.499287-2 125070.476 1.182329-21731 3102 1062
 125079.226 1.080714-2 125087.514 9.906061-3 125095.800 9.072696-31731 3102 1063
 125104.089 8.309283-3 125112.376 7.615259-3 125120.663 6.987267-31731 3102 1064
 125128.951 6.420689-3 125137.239 5.910118-3 125145.526 5.450408-31731 3102 1065
 125153.814 5.036524-3 125162.100 4.663824-3 125168.551 4.399303-31731 3102 1066
 125175.001 4.155159-3 125181.451 3.929582-3 125187.901 3.721024-31731 3102 1067
 125194.351 3.527931-3 125204.026 3.264375-3 125213.700 3.028465-31731 3102 1068
 125222.001 2.845410-3 125230.301 2.678296-3 125238.601 2.525437-31731 3102 1069
 125246.901 2.385391-3 125255.201 2.256829-3 125263.501 2.138648-31731 3102 1070
 125271.801 2.029791-3 125280.100 1.929321-3 125289.313 1.826588-31731 3102 1071
 125298.526 1.732220-3 125307.739 1.645377-3 125321.558 1.527651-31731 3102 1072
 125335.376 1.423107-3 125349.195 1.329935-3 125360.188 1.262885-31731 3102 1073
 125372.964 1.191978-3 125385.739 1.127719-3 125398.514 1.069145-31731 3102 1074
 125411.289 1.015657-3 125424.064 9.668470-4 125436.839 9.222176-41731 3102 1075
 125456.000 8.620983-4 125474.133 8.118920-4 125492.264 7.673336-41731 3102 1076
 125510.395 7.274437-4 125528.526 6.916687-4 125546.657 6.596019-41731 3102 1077
 125566.526 6.282489-4 125587.264 5.991535-4 125608.000 5.733005-41731 3102 1078
 125628.739 5.503586-4 125649.476 5.299976-4 125677.113 5.063073-41731 3102 1079
 125704.739 4.861323-4 125732.364 4.690124-4 125759.988 4.545445-41731 3102 1080
 125788.176 4.422749-4 125816.926 4.320044-4 125845.676 4.237700-41731 3102 1081
 125874.426 4.174489-4 125910.851 4.119822-4 125943.926 4.092531-41731 3102 1082
 125977.000 4.084719-4 126014.201 4.098742-4 126051.401 4.136316-41731 3102 1083
 126088.601 4.197088-4 126125.800 4.281333-4 126163.001 4.389954-41731 3102 1084
 126200.226 4.524060-4 126237.464 4.685256-4 126274.700 4.875997-41731 3102 1085
 126311.901 5.099290-4 126349.101 5.358215-4 126387.338 5.666558-41731 3102 1086
 126414.214 5.912220-4 126441.089 6.183639-4 126467.963 6.484307-41731 3102 1087
 126495.251 6.824259-4 126522.951 7.209471-4 126550.651 7.639295-41731 3102 1088
 126578.351 8.120463-4 126604.601 8.629200-4 126629.401 9.161978-41731 3102 1089
 126654.201 9.755871-4 126679.001 1.041991-3 126698.020 1.098319-31731 3102 1090
 126717.876 1.162599-3 126737.733 1.233280-3 126757.589 1.311097-31731 3102 1091
 126777.445 1.397082-3 126797.300 1.492230-3 126815.901 1.590984-31731 3102 1092
 126834.501 1.700179-3 126853.101 1.820997-3 126871.701 1.955177-31731 3102 1093
 126890.301 2.104854-3 126904.763 2.233567-3 126921.289 2.395246-31731 3102 1094
 126937.814 2.574463-3 126950.208 2.722059-3 126962.600 2.882018-31731 3102 1095
 126975.014 3.055794-3 126987.426 3.244737-3 126999.839 3.450468-31731 3102 1096
 127012.251 3.674440-3 127024.663 3.918775-3 127037.063 4.185460-31731 3102 1097
 127049.458 4.476432-3 127061.851 4.793897-3 127074.245 5.140887-31731 3102 1098
 127086.638 5.519924-3 127099.038 5.933114-3 127111.451 6.382932-31731 3102 1099
 127123.864 6.871494-3 127136.276 7.399599-3 127148.689 7.967028-31731 3102 1100
 127161.100 8.573076-3 127180.126 9.568118-3 127222.933 1.193021-21731 3102 1101
 127237.200 1.266789-2 127248.976 1.321756-2 127260.751 1.368876-21731 3102 1102
 127272.526 1.405775-2 127280.376 1.423739-2 127288.226 1.435906-21731 3102 1103
 127296.076 1.441993-2 127300.000 1.442701-2 127310.539 1.436879-21731 3102 1104
 127321.076 1.420075-2 127331.614 1.393019-2 127342.151 1.356844-21731 3102 1105
 127352.688 1.313005-2 127367.363 1.242220-2 127384.108 1.152589-21731 3102 1106
 127417.595 9.667268-3 127434.338 8.781615-3 127450.463 7.984607-31731 3102 1107
 127465.351 7.305707-3 127480.239 6.683396-3 127495.126 6.117860-31731 3102 1108
 127510.014 5.605882-3 127519.938 5.292371-3 127529.863 5.000003-31731 3102 1109
 127539.789 4.727741-3 127554.676 4.354004-3 127569.564 4.017549-31731 3102 1110
 127584.451 3.714795-3 127599.338 3.441975-3 127610.088 3.261600-31731 3102 1111
 127621.664 3.081683-3 127633.239 2.915297-3 127644.814 2.761066-31731 3102 1112
 127656.389 2.617968-3 127673.751 2.422504-3 127691.113 2.247384-31731 3102 1113
 127703.513 2.133200-3 127716.739 2.020505-3 127729.964 1.916283-31731 3102 1114
 127749.800 1.774059-3 127769.639 1.646882-3 127789.476 1.532602-31731 3102 1115
 127809.320 1.429792-3 127829.176 1.336955-3 127849.033 1.252889-31731 3102 1116
 127868.889 1.176571-3 127888.745 1.107091-3 127908.600 1.043691-31731 3102 1117
 127933.401 9.720222-4 127958.201 9.076870-4 127983.001 8.498619-41731 3102 1118
 128007.800 7.975041-4 128035.501 7.446208-4 128063.201 6.970463-41731 3102 1119
 128090.901 6.541003-4 128118.600 6.152761-4 128145.476 5.810892-41731 3102 1120
 128172.351 5.499695-4 128199.226 5.213147-4 128226.100 4.950456-41731 3102 1121
 128263.301 4.621358-4 128300.501 4.326942-4 128337.713 4.062411-41731 3102 1122
 128374.951 3.824442-4 128412.188 3.609494-4 128454.551 3.389520-41731 3102 1123
 128499.476 3.180223-4 128544.400 2.993291-4 128579.326 2.861280-41731 3102 1124
 128631.714 2.682515-4 128684.100 2.523440-4 128733.951 2.388068-41731 3102 1125
 128783.800 2.266128-4 128833.701 2.156160-4 128883.600 2.056714-41731 3102 1126
 128933.451 1.966608-4 128983.300 1.884614-4 129058.151 1.775326-41731 3102 1127
 129132.951 1.679782-4 129207.751 1.596330-4 129282.600 1.522943-41731 3102 1128
 129357.451 1.458612-4 129465.000 1.379384-4 129547.600 1.327521-41731 3102 1129
 129630.201 1.282466-4 129712.800 1.243396-4 129795.401 1.209625-41731 3102 1130
 129878.000 1.180582-4 130001.976 1.145058-4 130125.901 1.117355-41731 3102 1131
 130249.801 1.097268-4 130373.700 1.083280-4 130497.601 1.075444-41731 3102 1132
 130621.500 1.072704-4 130760.926 1.076083-4 130910.700 1.085950-41731 3102 1133
 131065.550 1.103807-4 131224.600 1.129223-4 131332.000 1.150966-41731 3102 1134
 131464.200 1.182762-4 131637.701 1.233420-4 131761.600 1.276104-41731 3102 1135
 131893.800 1.328434-4 132026.000 1.388218-4 132158.100 1.456307-41731 3102 1136
 132290.300 1.533699-4 132422.500 1.621590-4 132587.751 1.748346-41731 3102 1137
 132686.900 1.834725-4 132785.976 1.930410-4 132885.101 2.035686-41731 3102 1138
 132984.251 2.152737-4 133083.400 2.282078-4 133182.551 2.426532-41731 3102 1139
 133281.701 2.586922-4 133380.826 2.767108-4 133479.900 2.968175-41731 3102 1140
 133546.000 3.116291-4 133612.100 3.276703-4 133678.201 3.450667-41731 3102 1141
 133744.300 3.639554-4 133810.400 3.844892-4 133876.500 4.068321-41731 3102 1142
 133942.601 4.311642-4 134008.700 4.576776-4 134074.750 4.865804-41731 3102 1143
 134140.800 5.180245-4 134206.900 5.522602-4 134273.000 5.894427-41731 3102 1144
 134339.101 6.297162-4 134405.200 6.731666-4 134471.301 7.198082-41731 3102 1145
 134537.400 7.695844-4 134611.750 8.290772-4 134719.151 9.205614-41731 3102 1146
 134851.326 1.040316-3 134950.400 1.134496-3 135049.600 1.234271-31731 3102 1147
 135115.650 1.305844-3 135181.700 1.383803-3 135256.101 1.482044-31731 3102 1148
 135305.676 1.556224-3 135355.226 1.639205-3 135394.463 1.712655-31731 3102 1149
 135437.851 1.802531-3 135481.238 1.902769-3 135520.476 2.004450-31731 3102 1150
 135557.639 2.111397-3 135594.800 2.229896-3 135627.101 2.343973-31731 3102 1151
 135659.400 2.469255-3 135691.701 2.606627-3 135724.000 2.757914-31731 3102 1152
 135752.951 2.905850-3 135781.900 3.066879-3 135810.851 3.243094-31731 3102 1153
 135839.800 3.435449-3 135876.964 3.707820-3 135914.126 4.009807-31731 3102 1154
 135951.301 4.343951-3 135988.500 4.709636-3 136025.701 5.105293-31731 3102 1155
 136137.300 6.373090-3 136165.826 6.675402-3 136194.351 6.945391-31731 3102 1156
 136215.745 7.116701-3 136237.138 7.253199-3 136262.126 7.363469-31731 3102 1157
 136283.576 7.412012-3 136294.300 7.419058-3 136315.226 7.398740-31731 3102 1158
 136336.150 7.333904-3 136357.076 7.228096-3 136378.000 7.083509-31731 3102 1159
 136408.126 6.820080-3 136438.250 6.508202-3 136483.438 5.982909-31731 3102 1160
 136569.376 4.952539-3 136611.900 4.479552-3 136640.251 4.186607-31731 3102 1161
 136668.601 3.913543-3 136696.951 3.660064-3 136725.300 3.425350-31731 3102 1162
 136753.651 3.209089-3 136782.000 3.009806-3 136810.351 2.826618-31731 3102 1163
 136838.700 2.657954-3 136867.051 2.502870-3 136895.400 2.359932-31731 3102 1164
 136923.751 2.228290-3 136952.100 2.106705-3 136980.476 1.994360-31731 3102 1165
 137008.851 1.890336-3 137051.413 1.748658-3 137093.951 1.621810-31731 3102 1166
 137136.476 1.508033-3 137179.000 1.405592-3 137221.526 1.313062-31731 3102 1167
 137264.051 1.229262-3 137306.576 1.153188-3 137349.101 1.083938-31731 3102 1168
 137391.626 1.020725-3 137434.151 9.628495-4 137476.676 9.097561-41731 3102 1169
 137519.200 8.610932-4 137575.900 8.020789-4 137632.600 7.488684-41731 3102 1170
 137696.400 6.950827-4 137744.251 6.586031-4 137816.900 6.087113-41731 3102 1171
 137873.600 5.736325-4 137941.851 5.354830-4 138010.100 5.011301-41731 3102 1172
 138076.551 4.709632-4 138143.000 4.436028-4 138213.900 4.171531-41731 3102 1173
 138284.800 3.931427-4 138355.650 3.713367-4 138426.500 3.514515-41731 3102 1174
 138497.400 3.333027-4 138568.300 3.166997-4 138639.201 3.014784-41731 3102 1175
 138710.100 2.874989-4 138781.000 2.746376-4 138887.326 2.572491-41731 3102 1176
 138993.600 2.417520-4 139099.951 2.280327-4 139206.301 2.157440-41731 3102 1177
 139317.476 2.043706-4 139438.300 1.933540-4 139559.126 1.837106-41731 3102 1178
 139665.351 1.762570-4 139731.300 1.718784-4 139863.200 1.641834-41731 3102 1179
 139995.100 1.575283-4 140127.000 1.518081-4 140243.000 1.474836-41731 3102 1180
 140359.000 1.437758-4 140475.000 1.406455-4 140591.100 1.380633-41731 3102 1181
 140707.100 1.360079-4 140823.100 1.344642-4 140939.100 1.334240-41731 3102 1182
 141113.200 1.328057-4 141287.200 1.333459-4 141403.200 1.343631-41731 3102 1183
 141519.300 1.359510-4 141635.300 1.381388-4 141751.300 1.409730-41731 3102 1184
 141867.300 1.445115-4 142019.651 1.503485-4 142128.400 1.554309-41731 3102 1185
 142237.151 1.614343-4 142348.801 1.685951-4 142424.200 1.741194-41731 3102 1186
 142517.051 1.817499-4 142638.901 1.933460-4 142725.900 2.029059-41731 3102 1187
 142818.750 2.144812-4 142911.600 2.276093-4 142981.201 2.386655-41731 3102 1188
 143050.800 2.509068-4 143120.400 2.644918-4 143190.000 2.795507-41731 3102 1189
 143259.601 2.963316-4 143329.200 3.150114-4 143398.851 3.359210-41731 3102 1190
 143468.500 3.593496-4 143520.701 3.788137-4 143572.901 4.001032-41731 3102 1191
 143625.101 4.234250-4 143677.301 4.490110-4 143729.501 4.771285-41731 3102 1192
 143781.726 5.080987-4 143833.964 5.422262-4 143886.200 5.799037-41731 3102 1193
 143929.701 6.143403-4 143973.201 6.519520-4 144016.701 6.929755-41731 3102 1194
 144060.201 7.377577-4 144103.701 7.866760-4 144147.201 8.401337-41731 3102 1195
 144190.701 8.985589-4 144234.200 9.623912-4 144277.739 1.032112-31731 3102 1196
 144321.276 1.108005-3 144364.801 1.190666-3 144408.301 1.280225-31731 3102 1197
 144451.801 1.376864-3 144495.301 1.480490-3 144553.301 1.628764-31731 3102 1198
 144612.751 1.790500-3 144734.576 2.130913-3 144780.289 2.250079-31731 3102 1199
 144826.000 2.357828-3 144869.501 2.444026-3 144898.501 2.489876-31731 3102 1200
 144927.501 2.525217-3 144956.501 2.549037-3 144985.501 2.560840-31731 3102 1201
 145000.000 2.562139-3 145039.151 2.549223-3 145078.301 2.514447-31731 3102 1202
 145118.901 2.456803-3 145162.400 2.374125-3 145205.901 2.274296-31731 3102 1203
 145246.526 2.170081-3 145342.301 1.903090-3 145429.301 1.661088-31731 3102 1204
 145481.501 1.524290-3 145533.701 1.396450-3 145585.901 1.278520-31731 3102 1205
 145638.126 1.170718-3 145672.951 1.104573-3 145707.776 1.042583-31731 3102 1206
 145742.600 9.846292-4 145794.801 9.050594-4 145847.001 8.334865-41731 3102 1207
 145881.800 7.897628-4 145934.001 7.297705-4 145986.201 6.757985-41731 3102 1208
 146038.413 6.271649-4 146090.650 5.832633-4 146142.888 5.436282-41731 3102 1209
 146195.101 5.077484-4 146247.301 4.751980-4 146299.500 4.456354-41731 3102 1210
 146351.701 4.187356-4 146403.901 3.942095-4 146456.101 3.717987-41731 3102 1211
 146508.301 3.512778-4 146560.501 3.324514-4 146612.726 3.151643-41731 3102 1212
 146682.376 2.942139-4 146752.001 2.754040-4 146821.601 2.584710-41731 3102 1213
 146891.201 2.431850-4 146960.801 2.293484-4 147030.426 2.167940-41731 3102 1214
 147100.076 2.053903-4 147169.701 1.950012-4 147274.100 1.811069-41731 3102 1215
 147361.101 1.708557-4 147436.526 1.629189-4 147482.951 1.582777-41731 3102 1216
 147575.800 1.498908-4 147651.201 1.437487-4 147762.851 1.356746-41731 3102 1217
 147871.600 1.287918-4 147980.426 1.228483-4 148074.701 1.184160-41731 3102 1218
 148132.700 1.158694-4 148248.700 1.115325-4 148364.700 1.079952-41731 3102 1219
 148480.800 1.052372-4 148625.801 1.028827-4 148712.800 1.020864-41731 3102 1220
 148799.800 1.017806-4 148908.626 1.021936-4 148980.226 1.030265-41731 3102 1221
 149050.876 1.041794-4 149121.526 1.059016-4 149192.176 1.082085-41731 3102 1222
 149266.101 1.113383-4 149324.001 1.143998-4 149381.900 1.180759-41731 3102 1223
 149448.951 1.232062-4 149499.238 1.278104-4 149543.751 1.325175-41731 3102 1224
 149585.376 1.375329-4 149627.000 1.432293-4 149668.626 1.497107-41731 3102 1225
 149710.251 1.570995-4 149752.563 1.656536-4 149796.250 1.758635-41731 3102 1226
 149825.376 1.835594-4 149854.500 1.920834-4 149892.676 2.046811-41731 3102 1227
 149918.126 2.140920-4 149943.576 2.243964-4 149969.713 2.360944-41731 3102 1228
 149996.539 2.494648-4 150023.364 2.643950-4 150050.188 2.809340-41731 3102 1229
 150076.551 2.992157-4 150102.451 3.193774-4 150121.876 3.361253-41731 3102 1230
 150141.301 3.544507-4 150160.726 3.745470-4 150180.151 3.966336-41731 3102 1231
 150199.576 4.209653-4 150219.000 4.478320-4 150238.426 4.775766-41731 3102 1232
 150257.851 5.105857-4 150277.276 5.473169-4 150296.701 5.882956-41731 3102 1233
 150316.126 6.341359-4 150329.076 6.677407-4 150342.026 7.040555-41731 3102 1234
 150354.976 7.433397-4 150367.926 7.858789-4 150379.951 8.285688-41731 3102 1235
 150396.601 8.932653-4 150413.251 9.651715-4 150429.901 1.045136-31731 3102 1236
 150446.551 1.134076-3 150463.200 1.232919-3 150479.851 1.342612-31731 3102 1237
 150496.501 1.463947-3 150513.151 1.597536-3 150529.801 1.743576-31731 3102 1238
 150546.451 1.901691-3 150564.488 2.085169-3 150614.439 2.620216-31731 3102 1239
 150633.170 2.806612-3 150645.657 2.916786-3 150657.913 3.008974-31731 3102 1240
 150669.939 3.080161-3 150681.964 3.129227-3 150693.988 3.154012-31731 3102 1241
 150700.000 3.156882-3 150709.020 3.149147-3 150718.039 3.127193-31731 3102 1242
 150730.064 3.076867-3 150742.088 3.004556-3 150754.345 2.911392-31731 3102 1243
 150766.833 2.800408-3 150785.564 2.613168-3 150835.513 2.077456-31731 3102 1244
 150853.551 1.894048-3 150870.201 1.736070-3 150886.851 1.590171-31731 3102 1245
 150903.501 1.456727-3 150920.151 1.335505-3 150936.800 1.225911-31731 3102 1246
 150953.451 1.127095-3 150970.101 1.038162-3 150986.751 9.581628-41731 3102 1247
 151003.401 8.861942-4 151020.051 8.213973-4 151032.076 7.786181-41731 3102 1248
 151045.026 7.359652-4 151057.976 6.965548-4 151070.926 6.601021-41731 3102 1249
 151090.351 6.104067-4 151109.776 5.660082-4 151129.200 5.262387-41731 3102 1250
 151148.626 4.905108-4 151168.051 4.583333-4 151187.476 4.292725-41731 3102 1251
 151206.901 4.029586-4 151226.326 3.790689-4 151245.751 3.573268-41731 3102 1252
 151265.176 3.374903-4 151284.601 3.193521-4 151304.026 3.027261-41731 3102 1253
 151323.451 2.874558-4 151349.813 2.686500-4 151376.639 2.515106-41731 3102 1254
 151403.464 2.361730-4 151430.288 2.222561-4 151459.426 2.086600-41731 3102 1255
 151490.876 1.955414-4 151522.326 1.837399-4 151553.776 1.731275-41731 3102 1256
 151585.688 1.634245-4 151618.064 1.545266-4 151650.439 1.464631-41731 3102 1257
 151682.813 1.391672-4 151726.751 1.302362-4 151768.376 1.227105-41731 3102 1258
 151810.000 1.159678-4 151851.626 1.099016-4 151893.251 1.044240-41731 3102 1259
 151921.000 1.010604-4 151976.500 9.494518-5 152032.000 8.953307-51731 3102 1260
 152087.500 8.472335-5 152143.000 8.042438-5 152198.500 7.656853-51731 3102 1261
 152254.000 7.310331-5 152328.000 6.898800-5 152402.000 6.535576-51731 3102 1262
 152476.051 6.213972-5 152550.100 5.928231-5 152624.101 5.672798-51731 3102 1263
 152698.100 5.443575-5 152772.101 5.237112-5 152878.476 4.974755-51731 3102 1264
 152975.600 4.764568-5 153072.726 4.579405-5 153174.451 4.407122-51731 3102 1265
 153243.800 4.301745-5 153382.600 4.114763-5 153521.300 3.955388-51731 3102 1266
 153660.100 3.819633-5 153798.851 3.704929-5 153937.601 3.610546-51731 3102 1267
 154030.100 3.552226-5 154215.100 3.460720-5 154400.100 3.393202-51731 3102 1268
 154577.900 3.349973-5 154748.000 3.328128-5 154861.400 3.322589-51731 3102 1269
 155031.500 3.331419-5 155201.500 3.360437-5 155371.600 3.409499-51731 3102 1270
 155584.226 3.505157-5 155711.800 3.582426-5 155839.376 3.678122-51731 3102 1271
 155966.900 3.792678-5 156091.601 3.927744-5 156210.700 4.079240-51731 3102 1272
 156329.726 4.258741-5 156414.751 4.406145-5 156505.451 4.582784-51731 3102 1273
 156596.176 4.782936-5 156641.551 4.891165-5 156732.300 5.133457-51731 3102 1274
 156823.000 5.409493-5 156913.700 5.724333-5 156981.701 5.990487-51731 3102 1275
 157049.700 6.286726-5 157117.750 6.617204-5 157185.800 6.986608-51731 3102 1276
 157253.851 7.401384-5 157321.900 7.867723-5 157372.901 8.257099-51731 3102 1277
 157423.901 8.684675-5 157474.913 9.156159-5 157525.951 9.677051-51731 3102 1278
 157576.988 1.025407-4 157628.026 1.089480-4 157679.064 1.161057-41731 3102 1279
 157730.100 1.241149-4 157774.726 1.319365-4 157819.351 1.405979-41731 3102 1280
 157863.413 1.501281-4 157906.351 1.605177-4 157949.288 1.721478-41731 3102 1281
 157979.201 1.810907-4 158010.401 1.912576-4 158041.601 2.023374-41731 3102 1282
 158072.801 2.144153-4 158102.576 2.270908-4 158130.926 2.402961-41731 3102 1283
 158159.276 2.547497-4 158187.626 2.706034-4 158215.401 2.876761-41731 3102 1284
 158242.601 3.060634-4 158269.801 3.262879-4 158297.001 3.486191-41731 3102 1285
 158324.213 3.733781-4 158351.439 4.008165-4 158371.858 4.234778-41731 3102 1286
 158392.276 4.480975-4 158412.695 4.748639-4 158433.101 5.040494-41731 3102 1287
 158453.501 5.359364-4 158473.900 5.707928-4 158494.301 6.090160-41731 3102 1288
 158514.701 6.510038-4 158535.107 6.972485-4 158555.526 7.483161-41731 3102 1289
 158575.945 8.048078-4 158596.364 8.672770-4 158616.783 9.365236-41731 3102 1290
 158637.200 1.013396-3 158655.895 1.091348-3 158674.589 1.177218-31731 3102 1291
 158693.283 1.271731-3 158711.976 1.375718-3 158730.670 1.489840-31731 3102 1292
 158748.251 1.607241-3 158765.276 1.730832-3 158782.301 1.864345-31731 3102 1293
 158799.326 2.007604-3 158822.026 2.212643-3 158848.945 2.472947-31731 3102 1294
 158898.514 2.964867-3 158919.758 3.157989-3 158933.920 3.272750-31731 3102 1295
 158948.376 3.373353-3 158963.126 3.454442-3 158977.876 3.510471-31731 3102 1296
 158988.939 3.534528-3 159000.000 3.542379-3 159011.064 3.533768-31731 3102 1297
 159022.126 3.508970-3 159036.876 3.452023-3 159051.626 3.370228-31731 3102 1298
 159066.651 3.264895-3 159081.951 3.139234-3 159104.901 2.926948-31731 3102 1299
 159166.101 2.320155-3 159188.207 2.113159-3 159208.626 1.934495-31731 3102 1300
 159229.045 1.769321-3 159249.464 1.618431-3 159269.883 1.481423-31731 3102 1301
 159283.495 1.397452-3 159297.101 1.319081-3 159310.701 1.246001-31731 3102 1302
 159331.101 1.145560-3 159351.501 1.055104-3 159371.901 9.737846-41731 3102 1303
 159392.301 9.006173-4 159412.713 8.346299-4 159433.133 7.750039-41731 3102 1304
 159453.551 7.210876-4 159473.970 6.723124-4 159494.388 6.280620-41731 3102 1305
 159514.801 5.878473-4 159535.201 5.512307-4 159555.601 5.177883-41731 3102 1306
 159576.001 4.871793-4 159596.401 4.591625-4 159616.800 4.334470-41731 3102 1307
 159637.220 4.097719-4 159657.639 3.879539-4 159684.864 3.614316-41731 3102 1308
 159712.088 3.375079-4 159739.301 3.159089-4 159766.501 2.963287-41731 3102 1309
 159793.701 2.785046-4 159820.901 2.622741-4 159851.513 2.456743-41731 3102 1310
 159885.539 2.290446-4 159919.564 2.140818-4 159953.588 2.006345-41731 3102 1311
 159986.051 1.889345-4 160016.951 1.787269-4 160047.851 1.693647-41731 3102 1312
 160078.751 1.607529-4 160110.501 1.526099-4 160143.101 1.449102-41731 3102 1313
 160175.701 1.378228-4 160224.600 1.281930-4 160275.601 1.192200-41731 3102 1314
 160326.601 1.112290-4 160377.613 1.040690-4 160428.650 9.763828-51731 3102 1315
 160479.688 9.183039-5 160530.726 8.657545-5 160581.764 8.180206-51731 3102 1316
 160632.800 7.746036-5 160683.801 7.349599-5 160734.801 6.986994-51731 3102 1317
 160802.826 6.548814-5 160870.876 6.156026-5 160938.926 5.803251-51731 3102 1318
 161006.976 5.484402-5 161075.001 5.195822-5 161143.001 4.933733-51731 3102 1319
 161222.376 4.660032-5 161267.750 4.512165-5 161358.500 4.245089-51731 3102 1320
 161449.201 4.006326-5 161539.900 3.792039-5 161624.951 3.610467-51731 3102 1321
 161710.000 3.445156-5 161829.026 3.238347-5 161950.900 3.050469-51731 3102 1322
 162075.626 2.881060-5 162203.200 2.726474-5 162330.776 2.589567-51731 3102 1323
 162458.301 2.466487-5 162592.926 2.350712-5 162741.800 2.236190-51731 3102 1324
 162911.851 2.121154-5 163081.900 2.019015-5 163252.000 1.929318-51731 3102 1325
 163422.100 1.848965-5 163535.500 1.800528-5 163747.100 1.719087-51731 3102 1326
 163958.600 1.647708-5 164215.250 1.573004-5 164472.000 1.508033-51731 3102 1327
 164728.650 1.452632-5 164985.300 1.404194-5 165327.500 1.349873-51731 3102 1328
 165694.300 1.302134-5 166061.100 1.263548-5 166427.900 1.232779-51731 3102 1329
 166794.800 1.208830-5 167161.600 1.190964-5 167528.400 1.178644-51731 3102 1330
 167895.200 1.171498-5 168262.000 1.169280-5 168674.651 1.172828-51731 3102 1331
 169087.300 1.181932-5 169499.951 1.197882-5 169912.700 1.219832-51731 3102 1332
 170325.351 1.249562-5 170719.600 1.284587-5 171104.801 1.327269-51731 3102 1333
 171490.000 1.377852-5 171783.400 1.423307-5 172076.900 1.475263-51731 3102 1334
 172370.300 1.534591-5 172663.800 1.602346-5 172957.200 1.679803-51731 3102 1335
 173250.700 1.768533-5 173544.100 1.870368-5 173764.201 1.957157-51731 3102 1336
 173984.300 2.053261-5 174204.351 2.161640-5 174424.500 2.282215-51731 3102 1337
 174644.551 2.419169-5 174791.250 2.519809-5 174938.000 2.629228-51731 3102 1338
 175084.750 2.748439-5 175231.451 2.878601-5 175378.150 3.021054-51731 3102 1339
 175524.900 3.177350-5 175598.300 3.259876-5 175745.000 3.440223-51731 3102 1340
 175891.700 3.639485-5 176038.400 3.860332-5 176185.200 4.105716-51731 3102 1341
 176322.751 4.362260-5 176460.301 4.646303-5 176552.000 4.854283-51731 3102 1342
 176647.351 5.087893-5 176742.700 5.340889-5 176860.100 5.682319-51731 3102 1343
 176977.500 6.060647-5 177087.526 6.455068-5 177182.900 6.829988-51731 3102 1344
 177270.951 7.209913-5 177359.000 7.623978-5 177446.976 8.078086-51731 3102 1345
 177535.000 8.575071-5 177623.051 9.123063-5 177711.100 9.726185-51731 3102 1346
 177799.151 1.039481-4 177887.201 1.113402-4 177975.226 1.196064-41731 3102 1347
 178063.200 1.287976-4 178121.900 1.355377-4 178180.600 1.428176-41731 3102 1348
 178239.301 1.506932-4 178298.000 1.592258-4 178356.701 1.684853-41731 3102 1349
 178415.400 1.785488-4 178474.101 1.895036-4 178532.800 2.014490-41731 3102 1350
 178591.451 2.144963-4 178650.100 2.287452-4 178708.801 2.443565-41731 3102 1351
 178767.500 2.614690-4 178826.201 2.802470-4 178884.900 3.008673-41731 3102 1352
 178943.601 3.235218-4 179002.300 3.484103-4 179061.000 3.757403-41731 3102 1353
 179119.700 4.056451-4 179178.351 4.383814-4 179237.000 4.741253-41731 3102 1354
 179295.701 5.129668-4 179354.400 5.548620-4 179413.101 5.996676-41731 3102 1355
 179501.151 6.714251-4 179655.201 8.020249-4 179721.200 8.545570-41731 3102 1356
 179794.576 9.060740-4 179838.600 9.314909-4 179882.626 9.516820-41731 3102 1357
 179926.651 9.658982-4 179956.000 9.717441-4 180000.000 9.750109-41731 3102 1358
 180049.539 9.701207-4 180099.076 9.568855-4 180150.438 9.349027-41731 3102 1359
 180205.451 9.033566-4 180260.463 8.651224-4 180344.801 7.982501-41731 3102 1360
 180528.200 6.431846-4 180586.900 5.960122-4 180645.600 5.513993-41731 3102 1361
 180704.301 5.096986-4 180763.000 4.710644-4 180821.701 4.355011-41731 3102 1362
 180880.400 4.029134-4 180939.051 3.731432-4 180997.700 3.460438-41731 3102 1363
 181056.400 3.213588-4 181115.100 2.989012-4 181173.801 2.784683-41731 3102 1364
 181232.500 2.598704-4 181291.201 2.429290-4 181349.900 2.274817-41731 3102 1365
 181408.601 2.133795-4 181467.300 2.004868-4 181525.951 1.886813-41731 3102 1366
 181584.600 1.778715-4 181643.301 1.679398-4 181702.000 1.588077-41731 3102 1367
 181760.701 1.503975-4 181819.400 1.426408-4 181878.101 1.354756-41731 3102 1368
 181936.800 1.288475-4 182024.851 1.198154-4 182112.851 1.117136-41731 3102 1369
 182200.851 1.044671-4 182288.900 9.792835-5 182376.951 9.204028-51731 3102 1370
 182465.000 8.670118-5 182553.051 8.186784-5 182641.100 7.746340-51731 3102 1371
 182729.076 7.345712-5 182875.800 6.753436-5 182985.826 6.362407-51731 3102 1372
 183081.201 6.058293-5 183139.900 5.879832-5 183257.300 5.555916-51731 3102 1373
 183352.650 5.317187-5 183493.851 4.999808-5 183631.400 4.724627-51731 3102 1374
 183769.026 4.481356-5 183888.250 4.293648-5 183961.600 4.183649-51731 3102 1375
 184108.300 3.986601-5 184255.000 3.811772-5 184401.800 3.656546-51731 3102 1376
 184548.500 3.518758-5 184695.200 3.396534-5 184841.900 3.288305-51731 3102 1377
 184988.700 3.192719-5 185135.400 3.108651-5 185355.451 3.002811-51731 3102 1378
 185575.600 2.916525-5 185795.650 2.850646-5 186015.700 2.800955-51731 3102 1379
 186162.500 2.777443-5 186387.600 2.754873-5 186612.800 2.748175-51731 3102 1380
 186838.000 2.757238-5 187063.200 2.782183-5 187252.500 2.815829-51731 3102 1381
 187441.800 2.861649-5 187631.100 2.920345-5 187882.051 3.020036-51731 3102 1382
 188067.000 3.110188-5 188252.000 3.217930-5 188437.000 3.342982-51731 3102 1383
 188621.951 3.490380-5 188807.000 3.660264-5 188930.300 3.789221-51731 3102 1384
 189053.600 3.931881-5 189176.900 4.089799-5 189300.300 4.264827-51731 3102 1385
 189423.600 4.459058-5 189546.900 4.675025-5 189670.200 4.915665-51731 3102 1386
 189793.600 5.184191-5 189909.176 5.465779-5 190024.801 5.778823-51731 3102 1387
 190141.976 6.135920-5 190262.200 6.546785-5 190360.851 6.925372-51731 3102 1388
 190459.500 7.344775-5 190551.976 7.782104-5 190656.801 8.339476-51731 3102 1389
 190730.800 8.769873-5 190804.801 9.244593-5 190878.800 9.764784-51731 3102 1390
 190952.801 1.033631-4 191026.800 1.096498-4 191100.801 1.165981-41731 3102 1391
 191174.800 1.242830-4 191248.801 1.328266-4 191322.800 1.423161-41731 3102 1392
 191378.301 1.501891-4 191433.801 1.587583-4 191489.301 1.680915-41731 3102 1393
 191544.801 1.783038-4 191600.301 1.894743-4 191655.801 2.017350-41731 3102 1394
 191711.301 2.152240-4 191766.800 2.300679-4 191822.264 2.464656-41731 3102 1395
 191877.726 2.646049-4 191933.201 2.846867-4 191988.701 3.069585-41731 3102 1396
 192044.201 3.317100-4 192099.701 3.591786-4 192155.201 3.897334-41731 3102 1397
 192210.700 4.236950-4 192256.939 4.547095-4 192303.176 4.884698-41731 3102 1398
 192349.426 5.252318-4 192395.701 5.649782-4 192441.976 6.077215-41731 3102 1399
 192503.639 6.691561-4 192580.700 7.519687-4 192716.400 9.037017-41731 3102 1400
 192778.051 9.675097-4 192824.288 1.010042-3 192870.526 1.045106-31731 3102 1401
 192901.351 1.063399-3 192932.176 1.077121-3 192963.000 1.085858-31731 3102 1402
 193000.000 1.089572-3 193033.926 1.086017-3 193067.851 1.076266-31731 3102 1403
 193101.776 1.060517-3 193135.700 1.039329-3 193172.676 1.010807-31731 3102 1404
 193209.650 9.774915-4 193265.113 9.211522-4 193343.751 8.345398-41731 3102 1405
 193444.000 7.229194-4 193499.501 6.643143-4 193555.001 6.093883-41731 3102 1406
 193610.501 5.586521-4 193666.000 5.121710-4 193703.001 4.835575-41731 3102 1407
 193740.000 4.568088-4 193795.464 4.199712-4 193850.926 3.868035-41731 3102 1408
 193887.900 3.665586-4 193943.401 3.388027-4 193998.901 3.138330-41731 3102 1409
 194054.401 2.913938-4 194109.900 2.712014-4 194165.401 2.529807-41731 3102 1410
 194220.901 2.365532-4 194276.401 2.216926-4 194331.900 2.082326-41731 3102 1411
 194387.401 1.960306-4 194442.901 1.849556-4 194498.401 1.748607-41731 3102 1412
 194553.900 1.656610-4 194609.401 1.572553-4 194664.901 1.495574-41731 3102 1413
 194738.901 1.402962-4 194812.901 1.320222-4 194886.901 1.246218-41731 3102 1414
 194960.901 1.179902-4 195034.901 1.120273-4 195108.901 1.066628-41731 3102 1415
 195182.901 1.018224-4 195269.226 9.683405-5 195318.551 9.415587-51731 3102 1416
 195417.200 8.938049-5 195509.676 8.544549-5 195602.201 8.196587-51731 3102 1417
 195700.601 7.872585-5 195810.700 7.555829-5 195920.801 7.285177-51731 3102 1418
 196030.851 7.052715-5 196104.200 6.918704-5 196250.800 6.692303-51731 3102 1419
 196368.200 6.547604-5 196485.500 6.432882-5 196602.800 6.345477-51731 3102 1420
 196720.200 6.283471-5 196837.500 6.245360-5 196954.800 6.229966-51731 3102 1421
 197072.150 6.236435-5 197248.150 6.287334-5 197424.100 6.382376-51731 3102 1422
 197600.150 6.527628-5 197776.100 6.718575-5 197893.500 6.875126-51731 3102 1423
 198010.800 7.055422-5 198128.100 7.260772-5 198245.400 7.492692-51731 3102 1424
 198362.800 7.753047-5 198480.100 8.043880-5 198597.400 8.367666-51731 3102 1425
 198714.800 8.727275-5 198832.100 9.125806-5 198949.400 9.566955-51731 3102 1426
 199066.800 1.005492-4 199184.100 1.059423-4 199301.400 1.119019-41731 3102 1427
 199418.750 1.184891-4 199536.100 1.257612-4 199653.400 1.337966-41731 3102 1428
 199770.700 1.426713-4 199888.051 1.524667-4 200005.400 1.632645-41731 3102 1429
 200093.400 1.720814-4 200225.401 1.865598-4 200357.400 2.026450-41731 3102 1430
 200489.401 2.204307-4 200621.400 2.399634-4 200753.401 2.612029-41731 3102 1431
 200885.400 2.840109-4 201109.051 3.253001-4 201347.351 3.696444-41731 3102 1432
 201442.700 3.862760-4 201574.701 4.068466-4 201662.701 4.183175-41731 3102 1433
 201750.701 4.275086-4 201840.151 4.341771-4 201948.095 4.389279-41731 3102 1434
 201953.776 4.405232-4 201959.458 4.444231-4 201963.719 4.503155-41731 3102 1435
 201966.560 4.565034-4 201969.400 4.651769-4 201972.241 4.769962-41731 3102 1436
 201974.371 4.883425-4 201976.500 5.021215-4 201978.714 5.193134-41731 3102 1437
 201980.926 5.396444-4 201983.139 5.632904-4 201985.351 5.903016-41731 3102 1438
 201987.563 6.206425-4 201989.763 6.539204-4 201992.689 7.024227-41731 3102 1439
 201995.614 7.547719-4 202005.567 9.414865-4 202009.742 1.012935-31731 3102 1440
 202012.526 1.055352-3 202015.309 1.092796-3 202018.092 1.124943-31731 3102 1441
 202020.875 1.151787-3 202023.658 1.173595-3 202027.832 1.197903-31731 3102 1442
 202032.008 1.213963-3 202036.182 1.223928-3 202041.748 1.231027-31731 3102 1443
 202055.663 1.235599-3 202066.795 1.235883-3 226140.348 1.164249-31731 3102 1444
 245266.239 1.114844-3 262952.467 1.074610-3 281854.884 1.035369-31731 3102 1445
 302116.231 9.979661-4 329225.195 9.610446-4 364159.967 9.188379-41731 3102 1446
 402821.640 8.774209-4 431941.156 8.417801-4 466351.143 8.037656-41731 3102 1447
 500000.000 7.704680-4 555449.980 7.321599-4 608464.920 7.002207-41731 3102 1448
 661853.336 6.721099-4 719890.809 6.450529-4 780453.279 6.200862-41731 3102 1449
 860499.304 5.911200-4 948683.300 5.634924-4 1021261.83 5.438980-41731 3102 1450
 1122295.29 5.192636-4 1228028.82 4.969245-4 1337026.17 4.768633-41731 3102 1451
 1426160.04 4.620875-4 1500000.00 4.505519-4 1600000.00 4.455607-41731 3102 1452
 1773670.00 4.808646-4 2014108.21 5.129320-4 2300000.00 5.605916-41731 3102 1453
 2700000.00 6.006000-4 2886202.64 5.663270-4 3000000.00 5.469619-41731 3102 1454
 3105945.18 5.167519-4 3210387.77 4.893231-4 3309252.08 4.656659-41731 3102 1455
 3403373.58 4.445541-4 3524689.35 4.196160-4 3636145.07 3.986491-41731 3102 1456
 3751125.47 3.786824-4 3869988.06 3.598328-4 4000000.00 3.406209-41731 3102 1457
 4148992.40 3.285588-4 4261080.00 3.206104-4 4296010.00 3.106223-41731 3102 1458
 4383320.00 3.006186-4 4512760.00 2.926147-4 4581590.00 2.856174-41731 3102 1459
 4669930.00 2.805434-4 4804015.00 2.620111-4 4941950.00 2.447011-41731 3102 1460
 5000000.00 2.394006-4 5082375.00 2.331800-4 5115760.00 2.302006-41731 3102 1461
 5255549.49 2.166410-4 5347999.07 2.083316-4 5475096.00 1.974347-41731 3102 1462
 5641368.03 1.845651-4 5779241.39 1.748161-4 5888730.73 1.675290-41731 3102 1463
 6000000.00 1.605074-4 6159882.06 1.523946-4 6371137.84 1.424646-41731 3102 1464
 6534320.89 1.354439-4 6706092.68 1.286627-4 6851638.60 1.232531-41731 3102 1465
 7049378.71 1.164230-4 7237624.00 1.102242-4 7473470.33 1.032232-41731 3102 1466
 7668473.25 9.793832-5 7832675.46 9.375160-5 8000000.00 8.972627-51731 3102 1467
 8297188.22 8.387161-5 8482464.02 8.051677-5 8768164.26 7.571165-51731 3102 1468
 9000000.00 7.209458-5 9305392.38 6.865279-5 9680410.26 6.475810-51731 3102 1469
 10000000.0 6.169754-5 10141082.0 6.196768-5 10284154.4 6.224218-51731 3102 1470
 10429245.3 6.252055-5 10576383.2 6.280285-5 10725596.9 6.308913-51731 3102 1471
 10876915.8 6.337945-5 11000000.0 6.361560-5 11155190.2 6.654925-51731 3102 1472
 11241900.0 6.818838-5 11400503.0 7.137124-5 11561343.6 7.459900-51731 3102 1473
 11614770.0 7.567117-5 11778633.5 7.920337-5 11944808.8 8.278541-51731 3102 1474
 12000000.0 8.397510-5 12120670.0 9.045978-5 12211960.0 9.564985-51731 3102 1475
 12350200.0 1.039986-4 12490000.0 1.130760-4 12615590.0 1.202233-41731 3102 1476
 12793573.3 1.310249-4 12806350.0 1.318003-4 12987024.6 1.436416-41731 3102 1477
 13000000.0 1.444920-4 13060350.0 1.523956-4 13151410.0 1.650688-41731 3102 1478
 13243100.0 1.787960-4 13366330.0 1.955843-4 13490700.0 2.139490-41731 3102 1479
 13616260.0 2.302158-4 13711200.0 2.432225-4 13854850.0 2.641232-41731 3102 1480
 14000000.0 2.868200-4 14123360.0 3.137804-4 14247800.0 3.432750-41731 3102 1481
 14373350.0 3.709462-4 14500000.0 4.008480-4 14623420.0 4.313554-41731 3102 1482
 14716670.0 4.557503-4 14857660.0 4.949535-4 15000000.0 5.375290-41731 3102 1483
 15121490.0 5.651334-4 15305580.0 6.092205-4 15491900.0 6.567470-41731 3102 1484
 15710462.8 7.079235-4 15743900.0 7.157528-4 15966018.1 7.715271-41731 3102 1485
 16000000.0 7.800600-4 16225731.2 7.932050-4 16454647.1 8.065355-41731 3102 1486
 16686792.5 8.200540-4 16922213.1 8.337632-4 17000000.0 8.382930-41731 3102 1487
 17239839.4 8.206404-4 17483062.5 8.027387-4 17492860.0 8.020176-41731 3102 1488
 17739652.8 7.851286-4 17989927.3 7.680013-4 18000000.0 7.673120-41731 3102 1489
 18253947.6 7.435857-4 18493240.0 7.212287-4 18754146.3 6.989275-41731 3102 1490
 19000000.0 6.779130-4 19268055.8 6.582055-4 19493590.0 6.416242-41731 3102 1491
 19768609.5 6.229716-4 20000000.0 6.072780-4                      1731 3102 1492
                                                                  1731 3  099999
 1.703700+4 3.664830+1          0          0          0          01731 3103    1
-4.072020+6-4.072020+6          0          0          1         181731 3103    2
         18          2          0          0          0          01731 3103    3
 4.182080+6 0.000000+0 5.000000+6 4.706860-5 6.000000+6 3.673580-31731 3103    4
 7.000000+6 1.152400-2 8.000000+6 1.738920-2 9.000000+6 2.130450-21731 3103    5
 1.000000+7 2.779040-2 1.100000+7 3.011090-2 1.200000+7 2.976870-21731 3103    6
 1.300000+7 2.685180-2 1.400000+7 2.391510-2 1.450000+7 2.230060-21731 3103    7
 1.500000+7 2.081440-2 1.600000+7 1.828890-2 1.700000+7 1.636200-21731 3103    8
 1.800000+7 1.491860-2 1.900000+7 1.379600-2 2.000000+7 1.227100-21731 3103    9
                                                                  1731 3  099999
 1.703700+4 3.664830+1          0          0          0          01731 3104    1
-6.160200+6-6.160200+6          0          0          1         161731 3104    2
         16          2          0          0          0          01731 3104    3
 6.326700+6 0.000000+0 7.000000+6 8.558910-8 8.000000+6 1.241210-41731 3104    4
 9.000000+6 9.150000-4 1.000000+7 1.398340-3 1.100000+7 1.128660-31731 3104    5
 1.200000+7 1.054820-3 1.300000+7 3.588270-3 1.400000+7 6.491350-31731 3104    6
 1.450000+7 8.179670-3 1.500000+7 9.214000-3 1.600000+7 1.193720-21731 3104    7
 1.700000+7 1.510560-2 1.800000+7 1.969000-2 1.900000+7 2.452810-21731 3104    8
 2.000000+7 2.892800-2                                            1731 3104    9
                                                                  1731 3  099999
 1.703700+4 3.664830+1          0          0          0          01731 3105    1
-9.794600+6-9.794600+6          0          0          1         121731 3105    2
         12          2          0          0          0          01731 3105    3
 1.005930+7 0.000000+0 1.100000+7 2.220710-7 1.200000+7 9.223380-51731 3105    4
 1.300000+7 4.286150-4 1.400000+7 5.899130-4 1.450000+7 8.350550-41731 3105    5
 1.500000+7 1.040560-3 1.600000+7 1.580440-3 1.700000+7 2.415690-31731 3105    6
 1.800000+7 3.263950-3 1.900000+7 4.153890-3 2.000000+7 5.039730-31731 3105    7
                                                                  1731 3  099999
 1.703700+4 3.664830+1          0          0          0          01731 3106    1
-1.370830+7-1.370830+7          0          0          1          81731 3106    2
          8          2          0          0          0          01731 3106    3
 1.407880+7 0.000000+0 1.450000+7 0.000000+0 1.500000+7 1.85510-141731 3106    4
 1.600000+7 3.990930-9 1.700000+7 2.444700-7 1.800000+7 1.592760-61731 3106    5
 1.900000+7 5.630890-6 2.000000+7 8.228530-6                      1731 3106    6
                                                                  1731 3  099999
 1.703700+4 3.664830+1          0          0          0          01731 3107    1
-1.284750+6-1.284750+6          0          0          1         211731 3107    2
         21          2          0          0          0          01731 3107    3
 1.319470+6 0.000000+0 2.000000+6 0.000000+0 3.000000+6 1.089910-71731 3107    4
 4.000000+6 6.577170-5 5.000000+6 2.285280-3 6.000000+6 1.371780-21731 3107    5
 7.000000+6 2.594130-2 8.000000+6 3.122030-2 9.000000+6 3.369590-21731 3107    6
 1.000000+7 4.091660-2 1.100000+7 4.343930-2 1.200000+7 4.380620-21731 3107    7
 1.300000+7 4.030340-2 1.400000+7 3.526300-2 1.450000+7 3.149900-21731 3107    8
 1.500000+7 2.755750-2 1.600000+7 1.995800-2 1.700000+7 1.405710-21731 3107    9
 1.800000+7 9.569590-3 1.900000+7 6.680550-3 2.000000+7 4.652310-31731 3107   10
                                                                  1731 3  099999
                                                                  1731 0  0    0
 1.703700+4 3.664830+1          0          0          1          11731 8 16    1
 1.703600+4 0.000000+0          3          0          0          01731 8 16    2
                                                                  1731 8  099999
 1.703700+4 3.664830+1          0          0          1          11731 8 22    1
 1.503300+4 0.000000+0          3          0          0          01731 8 22    2
                                                                  1731 8  099999
 1.703700+4 3.664830+1          0          0          1          11731 8 28    1
 1.603600+4 0.000000+0          3          0          0          01731 8 28    2
                                                                  1731 8  099999
 1.703700+4 3.664830+1          0          0          1          11731 8 32    1
 1.603500+4 0.000000+0          3          0          0          01731 8 32    2
                                                                  1731 8  099999
 1.703700+4 3.664830+1          0          0          1          11731 8102    1
 1.703800+4 0.000000+0          3          0          0          01731 8102    2
                                                                  1731 8  099999
 1.703700+4 3.664830+1          0          0          1          11731 8103    1
 1.603700+4 0.000000+0          3          0          0          01731 8103    2
                                                                  1731 8  099999
 1.703700+4 3.664830+1          0          0          1          11731 8104    1
 1.603600+4 0.000000+0          3          0          0          01731 8104    2
                                                                  1731 8  099999
 1.703700+4 3.664830+1          0          0          1          11731 8105    1
 1.603500+4 0.000000+0          3          0          0          01731 8105    2
                                                                  1731 8  099999
 1.703700+4 3.664830+1          0          0          1          11731 8106    1
 1.503500+4 0.000000+0          3          0          0          01731 8106    2
                                                                  1731 8  099999
 1.703700+4 3.664830+1          0          0          1          11731 8107    1
 1.503400+4 0.000000+0          3          0          0          01731 8107    2
                                                                  1731 8  099999
                                                                  1731 0  0    0
                                                                     0 0  0    0
                                                                    -1 0  0    0
